#Wave		#Intensity
101.439453	29084.498047
102.561523	29100.091797
103.683594	29263.855469
104.805664	28912.888672
105.927734	29087.820312
107.048828	29129.054688
108.169922	28982.998047
109.291016	29191.492188
110.411133	29081.080078
111.532227	29075.484375
112.652344	29176.998047
113.772461	28785.292969
114.892578	28822.046875
116.011719	29108.888672
117.131836	28987.158203
118.250977	29341.146484
119.370117	29185.900391
120.488281	29216.058594
121.607422	29340.091797
122.725586	28981.333984
123.843750	29610.652344
124.961914	29448.593750
126.079102	29577.234375
127.197266	29773.033203
128.314453	29814.519531
129.431641	29518.093750
130.548828	29810.238281
131.665039	29782.347656
132.781250	29763.404297
133.897461	29757.886719
135.013672	30146.617188
136.129883	30040.345703
137.245117	30019.189453
138.360352	29924.058594
139.475586	29909.591797
140.590820	30038.619141
141.706055	29714.685547
142.820312	29949.146484
143.934570	29932.423828
145.048828	29917.939453
146.162109	29560.064453
147.276367	29312.044922
148.389648	29340.085938
149.502930	29038.031250
150.616211	29146.886719
151.728516	29022.148438
152.841797	28587.289062
153.954102	28689.373047
155.066406	28591.445312
156.178711	28147.257812
157.290039	28123.390625
158.401367	28317.669922
159.512695	28017.138672
160.624023	28148.470703
161.735352	27863.541016
162.845703	27907.113281
163.956055	28006.978516
165.066406	27638.544922
166.176758	27393.832031
167.287109	27387.787109
168.396484	27676.869141
169.505859	27763.257812
170.615234	27694.169922
171.724609	27627.308594
172.833008	27614.531250
173.941406	27755.091797
175.049805	27665.644531
176.158203	27824.310547
177.266602	27730.328125
178.374023	27952.253906
179.481445	27806.339844
180.588867	28057.710938
181.696289	27746.921875
182.802734	27860.607422
183.910156	27737.150391
185.016602	27866.689453
186.123047	27926.224609
187.228516	27642.228516
188.334961	27697.218750
189.440430	28028.078125
190.545898	28004.007812
191.651367	28181.238281
192.755859	28080.265625
193.861328	28092.390625
194.965820	27853.304688
196.070312	27865.388672
197.173828	28038.224609
198.278320	28249.623047
199.381836	28245.929688
200.485352	28147.089844
201.588867	28363.156250
202.692383	28493.185547
203.794922	28380.732422
204.897461	28220.626953
206.000000	28477.679688
207.102539	28591.949219
208.205078	28624.597656
209.306641	28804.732422
210.408203	28667.238281
211.509766	28865.601562
212.611328	28993.667969
213.711914	29389.701172
214.812500	29354.402344
215.914062	29303.187500
217.013672	29547.291016
218.114258	29252.958984
219.213867	29603.957031
220.314453	29329.982422
221.414062	29762.972656
222.512695	29864.125000
223.612305	30204.126953
224.710938	29895.927734
225.809570	30286.119141
226.908203	30496.675781
228.006836	30415.964844
229.105469	30774.599609
230.203125	30880.621094
231.300781	31002.625000
232.398438	30842.216797
233.496094	31447.253906
234.592773	31352.951172
235.689453	31803.328125
236.786133	31793.396484
237.882812	32073.023438
238.979492	31928.589844
240.075195	32379.412109
241.170898	32937.625000
242.266602	32537.712891
243.362305	33552.597656
244.457031	33426.562500
245.552734	33779.914062
246.647461	34055.761719
247.742188	34503.003906
248.835938	34710.558594
249.930664	35071.269531
251.024414	35532.664062
252.118164	35763.382812
253.211914	35893.601562
254.304688	36359.980469
255.398438	36145.027344
256.491211	36732.859375
257.583984	37163.054688
258.676758	36975.585938
259.768555	37767.593750
260.861328	37275.714844
261.953125	37955.886719
263.044922	37967.648438
264.135742	38043.539062
265.227539	38254.617188
266.318359	38250.394531
267.409180	38633.468750
268.500000	39000.636719
269.590820	38567.835938
270.680664	38758.566406
271.770508	38839.285156
272.861328	39186.117188
273.950195	38897.558594
275.040039	39028.824219
276.128906	38928.328125
277.217773	39165.242188
278.306641	38883.339844
279.395508	39039.957031
280.484375	38769.406250
281.572266	38636.593750
282.660156	38568.062500
283.748047	38161.671875
284.835938	38242.433594
285.922852	37748.457031
287.010742	37240.496094
288.097656	37270.527344
289.184570	36426.425781
290.270508	36180.210938
291.357422	35906.289062
292.443359	34881.914062
293.529297	34545.484375
294.615234	34252.671875
295.700195	33936.718750
296.786133	33263.613281
297.871094	32719.269531
298.956055	32561.837891
300.041016	32302.937500
301.125000	31682.027344
302.209961	31231.498047
303.293945	31062.128906
304.377930	30569.792969
305.460938	30580.169922
306.544922	30385.199219
307.627930	30077.072266
308.710938	30140.447266
309.793945	29601.291016
310.876953	29424.453125
311.958984	29374.572266
313.041016	29726.597656
314.124023	29022.916016
315.205078	29141.613281
316.287109	29299.646484
317.368164	28741.117188
318.450195	28321.101562
319.531250	28511.441406
320.611328	28368.781250
321.692383	28475.914062
322.772461	28229.066406
323.853516	28368.611328
324.933594	28117.017578
326.012695	28279.744141
327.092773	28259.595703
328.171875	28105.109375
329.250977	27901.917969
330.330078	27844.613281
331.409180	27831.314453
332.487305	27801.785156
333.566406	27556.650391
334.644531	27585.021484
335.722656	27381.494141
336.799805	27486.384766
337.877930	27496.195312
338.955078	27394.628906
340.032227	27467.085938
341.109375	27135.667969
342.186523	27389.193359
343.262695	27201.605469
344.338867	27034.849609
345.415039	26647.341797
346.491211	27154.218750
347.567383	26815.386719
348.642578	27011.023438
349.717773	26811.521484
350.792969	26988.625000
351.868164	26658.804688
352.943359	26933.638672
354.017578	26989.882812
355.091797	26876.279297
356.166016	26855.728516
357.240234	26872.412109
358.313477	26442.074219
359.387695	26719.500000
360.460938	26642.998047
361.534180	26661.978516
362.606445	26883.677734
363.679688	26860.759766
364.751953	26492.861328
365.824219	26796.244141
366.896484	26554.107422
367.968750	26594.074219
369.040039	26550.082031
370.112305	26482.738281
371.183594	26805.066406
372.253906	26807.763672
373.325195	26817.460938
374.396484	26614.693359
375.466797	26640.705078
376.537109	26979.707031
377.607422	27078.214844
378.676758	26896.367188
379.747070	26896.736328
380.816406	27088.777344
381.885742	27182.697266
382.955078	27402.921875
384.023438	27082.970703
385.092773	27464.660156
386.161133	26938.708984
387.229492	27355.613281
388.297852	27597.134766
389.365234	27382.255859
390.433594	27459.970703
391.500977	27488.535156
392.568359	27870.792969
393.634766	27599.574219
394.702148	27628.175781
395.768555	27616.947266
396.834961	27849.492188
397.901367	27732.794922
398.967773	27934.962891
400.034180	27639.988281
401.099609	27783.566406
402.165039	27781.730469
403.230469	27869.064453
404.295898	27679.472656
405.360352	27856.025391
406.424805	28128.910156
407.489258	28108.341797
408.553711	27946.833984
409.618164	27975.556641
410.682617	28342.652344
411.746094	28042.431641
412.809570	28550.712891
413.873047	28819.373047
414.935547	28537.880859
415.999023	28874.843750
417.061523	28788.501953
418.124023	28730.359375
419.186523	28909.875000
420.249023	28894.097656
421.310547	28433.378906
422.372070	28558.779297
423.433594	28425.171875
424.495117	28588.302734
425.556641	28466.427734
426.617188	28547.150391
427.677734	28658.542969
428.739258	28538.964844
429.798828	28681.042969
430.859375	28311.462891
431.918945	28606.853516
432.979492	28406.966797
434.039062	28299.021484
435.097656	28788.080078
436.157227	28352.080078
437.215820	28277.109375
438.275391	28598.789062
439.333984	28427.007812
440.391602	28359.091797
441.450195	28416.361328
442.507812	28341.326172
443.566406	28807.480469
444.624023	28621.386719
445.680664	28543.978516
446.738281	28544.578125
447.794922	28989.826172
448.851562	28973.945312
449.908203	28636.273438
450.964844	29013.156250
452.021484	28947.560547
453.077148	29161.291016
454.132812	29178.568359
455.188477	29285.845703
456.244141	29314.996094
457.299805	29685.310547
458.354492	29567.626953
459.409180	29821.994141
460.463867	29720.882812
461.518555	30172.154297
462.572266	29634.740234
463.626953	30071.931641
464.680664	30198.519531
465.734375	30263.464844
466.788086	29974.839844
467.840820	30215.408203
468.893555	30045.361328
469.947266	30119.818359
471.000000	29883.191406
472.051758	30000.400391
473.104492	30015.492188
474.156250	29966.429688
475.208008	30328.509766
476.259766	30293.746094
477.311523	30066.388672
478.363281	30326.431641
479.414062	30137.046875
480.464844	30420.986328
481.515625	30747.857422
482.566406	30479.908203
483.616211	30411.796875
484.666992	31119.746094
485.716797	31275.546875
486.766602	31331.378906
487.815430	31675.449219
488.865234	31655.136719
489.914062	31522.820312
490.962891	31924.312500
492.011719	31980.310547
493.060547	31621.478516
494.109375	31567.744141
495.157227	31623.701172
496.205078	31486.451172
497.252930	31296.656250
498.300781	30987.470703
499.347656	30334.462891
500.395508	30722.068359
501.442383	30765.984375
502.489258	30571.095703
503.536133	30354.634766
504.582031	30267.103516
505.627930	29921.470703
506.674805	30015.458984
507.720703	29803.509766
508.765625	29656.033203
509.811523	29336.326172
510.856445	29655.093750
511.901367	29450.091797
512.946289	29173.232422
513.991211	28946.523438
515.036133	29258.267578
516.080078	28978.820312
517.124023	28615.462891
518.167969	28699.806641
519.211914	29117.125000
520.254883	28765.566406
521.298828	28962.599609
522.341797	29118.962891
523.384766	28994.925781
524.427734	28686.232422
525.469727	28403.800781
526.512695	28353.908203
527.554688	28383.158203
528.596680	28407.617188
529.638672	28475.281250
530.679688	28293.349609
531.721680	28032.126953
532.762695	28265.427734
533.803711	28542.042969
534.844727	28297.531250
535.884766	28382.058594
536.925781	28142.228516
537.965820	28051.314453
539.005859	28316.119141
540.045898	28210.775391
541.084961	28090.964844
542.125000	28084.144531
543.164062	27940.207031
544.203125	28282.220703
545.242188	28167.140625
546.280273	28251.787109
547.319336	28220.912109
548.357422	28047.964844
549.395508	28029.080078
550.433594	28120.982422
551.470703	28410.464844
552.508789	27837.435547
553.545898	28045.031250
554.583008	27912.828125
555.620117	27963.804688
556.657227	27578.347656
557.693359	27950.041016
558.729492	27986.574219
559.766602	27991.755859
560.801758	27767.691406
561.837891	28344.843750
562.874023	28113.515625
563.909180	28089.746094
564.944336	28297.794922
565.979492	27894.835938
567.013672	27953.144531
568.048828	28021.138672
569.083008	27651.736328
570.117188	28152.363281
571.151367	27811.855469
572.185547	27966.916016
573.219727	27807.632812
574.252930	27740.207031
575.286133	27846.949219
576.319336	27566.558594
577.352539	27849.984375
578.384766	27734.097656
579.417969	27591.533203
580.450195	27773.410156
581.482422	28107.943359
582.513672	28084.066406
583.545898	28077.142578
584.577148	27423.166016
585.608398	27617.291016
586.639648	27763.003906
587.670898	27688.115234
588.702148	27637.449219
589.732422	27914.226562
590.762695	27924.234375
591.792969	27936.669922
592.823242	27759.804688
593.853516	27903.294922
594.882812	27757.917969
595.912109	27823.750000
596.942383	27792.455078
597.970703	27649.402344
599.000000	27814.865234
600.028320	27790.835938
601.057617	28070.619141
602.085938	28051.488281
603.114258	27903.482422
604.141602	28139.662109
605.169922	27753.244141
606.197266	27904.332031
607.224609	27950.845703
608.251953	27885.423828
609.279297	27890.566406
610.305664	27632.773438
611.333008	27930.074219
612.359375	28139.806641
613.385742	27911.144531
614.411133	27796.906250
615.437500	27482.802734
616.462891	27565.863281
617.488281	27700.144531
618.513672	27610.160156
619.539062	27288.470703
620.564453	27725.218750
621.588867	27891.337891
622.613281	27859.876953
623.637695	27433.050781
624.662109	27721.250000
625.686523	27845.982422
626.709961	27626.464844
627.733398	27485.019531
628.756836	27402.144531
629.780273	27421.849609
630.803711	27778.777344
631.826172	27805.888672
632.848633	27652.115234
633.871094	27527.625000
634.893555	28085.351562
635.916016	27359.212891
636.937500	27855.953125
637.959961	27613.958984
638.981445	27849.078125
640.002930	27646.152344
641.023438	27423.566406
642.044922	27435.958984
643.065430	27732.435547
644.085938	27833.066406
645.106445	27348.207031
646.126953	27350.787109
647.147461	27468.554688
648.166992	27047.087891
649.186523	27113.355469
650.206055	27432.214844
651.225586	27400.470703
652.245117	27422.679688
653.263672	27189.730469
654.282227	27138.289062
655.300781	27091.734375
656.319336	26961.697266
657.337891	27045.220703
658.355469	26733.398438
659.373047	26964.283203
660.390625	26878.339844
661.408203	27092.132812
662.425781	26812.033203
663.443359	27168.455078
664.459961	26954.640625
665.476562	26531.740234
666.493164	27006.353516
667.509766	26912.919922
668.525391	26976.908203
669.541016	27117.201172
670.557617	27144.332031
671.573242	27129.621094
672.587891	26784.986328
673.603516	26794.828125
674.618164	26812.062500
675.632812	27127.375000
676.648438	26750.451172
677.662109	26555.748047
678.676758	26553.226562
679.690430	27100.453125
680.705078	26962.414062
681.718750	26762.669922
682.732422	27090.705078
683.745117	26903.244141
684.758789	26414.675781
685.771484	26646.574219
686.784180	26690.955078
687.796875	26885.951172
688.809570	26908.166016
689.821289	26540.164062
690.833984	26488.214844
691.845703	26824.142578
692.857422	26601.714844
693.869141	26413.806641
694.879883	26569.441406
695.890625	26586.673828
696.902344	26641.003906
697.913086	26391.126953
698.923828	26732.406250
699.933594	26645.753906
700.944336	26818.917969
701.954102	26828.781250
702.963867	26759.425781
703.973633	26583.570312
704.982422	26551.291016
705.992188	26464.501953
707.000977	26717.095703
708.009766	26508.886719
709.018555	26357.601562
710.027344	26521.072266
711.036133	26359.814453
712.043945	26704.365234
713.051758	26595.164062
714.059570	26582.666016
715.067383	26604.898438
716.075195	26694.140625
717.082031	26177.800781
718.088867	26386.154297
719.095703	26659.136719
720.102539	26547.294922
721.109375	26507.441406
722.115234	26547.070312
723.122070	26194.123047
724.127930	26546.839844
725.133789	26596.437500
726.138672	26534.175781
727.144531	26621.083984
728.149414	26233.001953
729.154297	26227.847656
730.159180	26575.976562
731.164062	26322.042969
732.168945	26401.517578
733.172852	26490.978516
734.176758	26269.253906
735.180664	26396.074219
736.184570	26512.976562
737.188477	26271.201172
738.191406	26153.914062
739.195312	26240.927734
740.198242	26440.132812
741.201172	26285.416016
742.203125	26063.318359
743.206055	26317.462891
744.208008	26015.470703
745.209961	26242.251953
746.211914	26474.107422
747.213867	26518.871094
748.215820	26256.628906
749.216797	26298.869141
750.217773	25994.039062
751.218750	26243.537109
752.219727	25908.605469
753.220703	26065.736328
754.220703	26043.005859
755.221680	26195.216797
756.221680	26157.500000
757.221680	25927.251953
758.220703	26027.005859
759.220703	25994.236328
760.219727	25923.929688
761.218750	26046.253906
762.217773	25658.111328
763.216797	25930.607422
764.215820	25800.150391
765.213867	25862.443359
766.211914	25817.072266
767.209961	25997.113281
768.208008	26099.556641
769.206055	25903.859375
770.203125	25996.294922
771.201172	25953.406250
772.198242	25953.123047
773.195312	26165.976562
774.192383	26363.857422
775.188477	25854.431641
776.185547	26212.894531
777.181641	26197.595703
778.177734	26330.367188
779.173828	26149.404297
780.168945	25975.906250
781.165039	25930.412109
782.160156	26314.390625
783.155273	26045.365234
784.150391	26200.859375
785.144531	26368.974609
786.139648	26052.050781
787.133789	26089.474609
788.127930	25943.361328
789.122070	26146.753906
790.116211	26325.068359
791.110352	25819.162109
792.103516	26626.529297
793.096680	26135.591797
794.089844	26301.443359
795.083008	26142.583984
796.076172	26300.939453
797.068359	26547.500000
798.061523	26088.839844
799.053711	26186.804688
800.045898	26390.636719
801.038086	26256.816406
802.029297	26498.544922
803.020508	26188.207031
804.012695	26031.578125
805.003906	26157.375000
805.994141	26459.798828
806.985352	26313.224609
807.976562	26386.142578
808.966797	26398.509766
809.957031	26188.726562
810.947266	26117.738281
811.936523	26299.259766
812.926758	26205.531250
813.916016	26311.343750
814.905273	26639.546875
815.894531	26098.507812
816.883789	26224.576172
817.873047	26249.564453
818.861328	26150.658203
819.850586	26443.718750
820.838867	26233.511719
821.826172	26321.763672
822.814453	26225.326172
823.802734	26149.099609
824.790039	26331.039062
825.777344	26224.419922
826.764648	26279.824219
827.751953	26046.517578
828.738281	26028.445312
829.725586	26653.910156
830.711914	26086.039062
831.698242	26227.638672
832.684570	25928.195312
833.670898	25899.937500
834.656250	26186.123047
835.641602	26109.708984
836.627930	26020.580078
837.612305	26200.373047
838.597656	26309.173828
839.583008	26537.310547
840.567383	25861.750000
841.551758	26061.953125
842.536133	26043.820312
843.520508	25949.478516
844.504883	26081.208984
845.488281	25709.867188
846.472656	26184.697266
847.456055	25668.349609
848.439453	25685.710938
849.421875	25748.851562
850.405273	26145.185547
851.387695	25720.025391
852.371094	25605.105469
853.353516	25556.304688
854.334961	25767.091797
855.317383	25634.294922
856.299805	25562.554688
857.281250	25539.171875
858.262695	25548.890625
859.244141	25418.501953
860.225586	25479.158203
861.206055	25471.027344
862.187500	25450.150391
863.167969	25482.798828
864.148438	25217.136719
865.128906	25078.888672
866.108398	25185.453125
867.088867	25455.330078
868.068359	24975.130859
869.047852	24951.576172
870.027344	25160.292969
871.006836	25284.833984
871.985352	25205.144531
872.964844	25120.316406
873.943359	24958.824219
874.921875	25134.513672
875.900391	25024.070312
876.877930	24867.582031
877.856445	25255.511719
878.833984	24868.904297
879.811523	25060.072266
880.789062	24877.896484
881.766602	24974.482422
882.744141	24963.646484
883.720703	25090.990234
884.697266	25131.355469
885.673828	24938.783203
886.650391	25048.265625
887.626953	25111.691406
888.602539	24885.708984
889.579102	25141.257812
890.554688	24976.691406
891.530273	25052.958984
892.504883	25167.699219
893.480469	25067.136719
894.455078	24938.330078
895.430664	24953.091797
896.405273	25044.808594
897.379883	25313.574219
898.353516	24804.955078
899.328125	25258.552734
900.301758	25401.724609
901.275391	25285.644531
902.249023	25259.394531
903.222656	25525.914062
904.196289	24942.283203
905.168945	25005.875000
906.141602	25287.908203
907.114258	25318.171875
908.086914	25106.810547
909.059570	25350.447266
910.031250	25514.453125
911.003906	25570.494141
911.975586	25227.826172
912.947266	25487.093750
913.918945	24995.031250
914.889648	25655.861328
915.861328	25431.376953
916.832031	25456.558594
917.802734	25432.820312
918.773438	25599.671875
919.744141	25470.328125
920.713867	25322.898438
921.684570	25500.125000
922.654297	25262.431641
923.624023	25504.160156
924.593750	25199.339844
925.562500	25087.828125
926.532227	24942.742188
927.500977	25478.687500
928.469727	25150.414062
929.438477	25291.726562
930.407227	25254.980469
931.375977	25246.621094
932.343750	25029.097656
933.311523	25351.271484
934.279297	25544.402344
935.247070	25758.271484
936.214844	25551.017578
937.181641	25390.207031
938.149414	25606.746094
939.116211	25650.134766
940.083008	25559.074219
941.049805	25315.380859
942.015625	25425.996094
942.982422	25642.730469
943.948242	25815.548828
944.914062	25641.605469
945.879883	25340.751953
946.845703	25244.332031
947.810547	25450.863281
948.776367	25491.703125
949.741211	25535.144531
950.706055	25524.191406
951.670898	25373.291016
952.634766	25707.031250
953.599609	25851.644531
954.563477	25156.210938
955.527344	25479.716797
956.491211	25575.080078
957.455078	25584.865234
958.418945	25581.679688
959.381836	25498.039062
960.344727	25936.099609
961.308594	25681.144531
962.270508	25540.349609
963.233398	25791.660156
964.196289	25967.732422
965.158203	25598.281250
966.120117	25836.744141
967.082031	25568.494141
968.043945	25744.648438
969.005859	25369.687500
969.966797	25444.453125
970.928711	25516.642578
971.889648	25677.300781
972.850586	25765.166016
973.810547	25434.105469
974.771484	25665.105469
975.731445	25768.630859
976.692383	25653.488281
977.652344	25772.673828
978.612305	25584.560547
979.571289	25740.242188
980.531250	25692.751953
981.490234	25348.162109
982.449219	25655.054688
983.408203	25323.367188
984.367188	25679.904297
985.326172	25642.785156
986.284180	25496.103516
987.243164	25905.033203
988.201172	25727.033203
989.159180	25439.359375
990.117188	25712.767578
991.074219	25432.818359
992.032227	25317.265625
992.989258	25481.111328
993.946289	25321.119141
994.903320	25709.697266
995.860352	25578.429688
996.816406	25661.416016
997.773438	25517.021484
998.729492	25722.900391
999.685547	25581.078125
1000.641602	25384.281250
1001.596680	25786.427734
1002.552734	25563.433594
1003.507812	25274.939453
1004.462891	25590.912109
1005.417969	25674.025391
1006.373047	25872.363281
1007.328125	25785.345703
1008.282227	25910.439453
1009.236328	25710.753906
1010.190430	25793.957031
1011.144531	25871.949219
1012.098633	25635.453125
1013.052734	25758.003906
1014.005859	25830.783203
1014.958984	25612.505859
1015.912109	25766.589844
1016.865234	25802.679688
1017.818359	25875.515625
1018.770508	25247.705078
1019.723633	25924.144531
1020.675781	25844.777344
1021.627930	25552.703125
1022.580078	25399.707031
1023.531250	25595.988281
1024.483398	25603.193359
1025.434570	25862.640625
1026.385742	25423.136719
1027.336914	26103.195312
1028.288086	25342.843750
1029.239258	25234.310547
1030.189453	25617.521484
1031.139648	25406.414062
1032.089844	25103.150391
1033.040039	25462.859375
1033.990234	25248.974609
1034.940430	25350.876953
1035.889648	24952.605469
1036.838867	25299.375000
1037.788086	25016.830078
1038.737305	25397.974609
1039.686523	24978.345703
1040.634766	25051.318359
1041.583984	25282.445312
1042.532227	25234.242188
1043.480469	25309.931641
1044.428711	25216.884766
1045.375977	25785.791016
1046.324219	25497.591797
1047.271484	25233.033203
1048.218750	25541.000000
1049.166016	25849.076172
1050.113281	25663.626953
1051.060547	25438.509766
1052.006836	25223.871094
1052.953125	25458.154297
1053.900391	25407.222656
1054.845703	25768.439453
1055.791992	25479.710938
1056.738281	25798.779297
1057.683594	25581.326172
1058.628906	25604.396484
1059.575195	25497.896484
1060.519531	25282.914062
1061.464844	25009.656250
1062.410156	25336.912109
1063.354492	24960.355469
1064.298828	25285.072266
1065.243164	25091.033203
1066.187500	25166.996094
1067.131836	25142.351562
1068.075195	25017.046875
1069.019531	25061.242188
1069.962891	24856.386719
1070.906250	24985.373047
1071.849609	24899.705078
1072.791992	25179.851562
1073.735352	24593.044922
1074.677734	24698.203125
1075.620117	24620.375000
1076.562500	24736.185547
1077.504883	24706.097656
1078.447266	24503.492188
1079.388672	24781.257812
1080.330078	24743.193359
1081.271484	24667.939453
1082.212891	24582.035156
1083.154297	24873.289062
1084.095703	24928.195312
1085.036133	25131.923828
1085.976562	24575.625000
1086.916992	24805.943359
1087.857422	24876.824219
1088.797852	25088.662109
1089.738281	25154.296875
1090.677734	25097.591797
1091.617188	25155.267578
1092.556641	25367.300781
1093.496094	25358.505859
1094.435547	25118.119141
1095.374023	24853.681641
1096.313477	25388.019531
1097.251953	25286.000000
1098.190430	25559.544922
1099.128906	25372.259766
1100.066406	25379.435547
1101.004883	25511.880859
1101.942383	25364.468750
1102.879883	25259.664062
1103.817383	25653.490234
1104.754883	25676.720703
1105.692383	25707.960938
1106.628906	25539.103516
1107.566406	25695.750000
1108.502930	25649.605469
1109.439453	25905.097656
1110.375977	25904.361328
1111.311523	26208.056641
1112.248047	26175.318359
1113.183594	26372.312500
1114.119141	26280.808594
1115.054688	26608.833984
1115.990234	26364.984375
1116.924805	27120.871094
1117.860352	26430.498047
1118.794922	26855.052734
1119.729492	26902.617188
1120.664062	27201.667969
1121.598633	27128.902344
1122.533203	27230.060547
1123.466797	27026.115234
1124.400391	27411.062500
1125.333984	27442.703125
1126.267578	27664.498047
1127.201172	27875.656250
1128.133789	27845.775391
1129.067383	27949.857422
1130.000000	27917.294922
1130.932617	28160.808594
1131.865234	28393.683594
1132.797852	28548.876953
1133.729492	28620.988281
1134.662109	28655.570312
1135.593750	28636.505859
1136.525391	29226.544922
1137.457031	28842.580078
1138.388672	29526.810547
1139.319336	29757.562500
1140.250977	30334.787109
1141.181641	30254.222656
1142.112305	30630.275391
1143.042969	30872.126953
1143.972656	31210.800781
1144.903320	31022.826172
1145.833008	31302.505859
1146.762695	31386.019531
1147.692383	31329.734375
1148.622070	30918.412109
1149.551758	31039.558594
1150.480469	30439.707031
1151.410156	30654.990234
1152.338867	29982.187500
1153.267578	29755.996094
1154.196289	29597.031250
1155.125000	29249.511719
1156.052734	29222.371094
1156.980469	28901.597656
1157.909180	28871.689453
1158.836914	28769.011719
1159.763672	29005.892578
1160.691406	28752.240234
1161.619141	28897.529297
1162.545898	28608.710938
1163.472656	29034.523438
1164.399414	28721.345703
1165.326172	28996.234375
1166.251953	28780.083984
1167.178711	28728.496094
1168.104492	28660.691406
1169.030273	28595.562500
1169.956055	28430.490234
1170.881836	28124.910156
1171.807617	28219.031250
1172.732422	28280.761719
1173.658203	27899.322266
1174.583008	28093.455078
1175.507812	27511.800781
1176.432617	27413.919922
1177.356445	27654.039062
1178.281250	27694.089844
1179.205078	27125.472656
1180.128906	27114.033203
1181.052734	26907.740234
1181.976562	27039.708984
1182.900391	26771.064453
1183.823242	26740.595703
1184.746094	26653.246094
1185.669922	26568.570312
1186.592773	26443.228516
1187.514648	26575.248047
1188.437500	26742.544922
1189.359375	26121.140625
1190.282227	26242.326172
1191.204102	26518.107422
1192.125977	26332.953125
1193.047852	26267.080078
1193.968750	26529.443359
1194.890625	26412.025391
1195.811523	26704.357422
1196.732422	26410.494141
1197.653320	26062.230469
1198.574219	26297.628906
1199.495117	26386.460938
1200.415039	26491.617188
1201.334961	26523.460938
1202.255859	26147.730469
1203.175781	26657.833984
1204.094727	26787.574219
1205.014648	26474.216797
1205.933594	26565.898438
1206.853516	26279.587891
1207.772461	26482.789062
1208.691406	26209.960938
1209.610352	26679.882812
1210.528320	26856.042969
1211.447266	27116.648438
1212.365234	26922.687500
1213.283203	26802.177734
1214.201172	27171.843750
1215.119141	27587.947266
1216.037109	27287.675781
1216.954102	27603.123047
1217.872070	27539.853516
1218.789062	27588.320312
1219.706055	27571.371094
1220.623047	27437.162109
1221.539062	27692.908203
1222.456055	27962.380859
1223.372070	27585.351562
1224.288086	27901.285156
1225.204102	27622.361328
1226.120117	27706.388672
1227.036133	27555.648438
1227.951172	27582.345703
1228.867188	27139.296875
1229.782227	27633.035156
1230.697266	26760.896484
1231.612305	27500.671875
1232.526367	27163.880859
1233.441406	27392.812500
1234.355469	27137.902344
1235.269531	26978.609375
1236.183594	26756.353516
1237.097656	27152.234375
1238.011719	27146.068359
1238.924805	26767.744141
1239.838867	26892.878906
1240.751953	26467.839844
1241.665039	26505.349609
1242.578125	26731.820312
1243.491211	26495.503906
1244.403320	26785.052734
1245.315430	26737.707031
1246.228516	26915.046875
1247.140625	26870.447266
1248.052734	26880.654297
1248.963867	26515.248047
1249.875977	26802.357422
1250.787109	26727.531250
1251.699219	27212.285156
1252.610352	26698.515625
1253.520508	26867.857422
1254.431641	27188.210938
1255.342773	27231.419922
1256.252930	27082.453125
1257.163086	27452.439453
1258.074219	27204.580078
1258.983398	27258.806641
1259.893555	27389.980469
1260.803711	27359.068359
1261.712891	27207.210938
1262.622070	27574.851562
1263.532227	27739.164062
1264.440430	27587.289062
1265.349609	27688.398438
1266.258789	27938.089844
1267.166992	27742.144531
1268.076172	27892.863281
1268.984375	28318.869141
1269.892578	28045.804688
1270.799805	28270.992188
1271.708008	28416.398438
1272.616211	28388.333984
1273.523438	28310.673828
1274.430664	28257.781250
1275.337891	28108.419922
1276.245117	28011.371094
1277.151367	28319.521484
1278.058594	28368.605469
1278.964844	28213.636719
1279.871094	28494.400391
1280.777344	28358.708984
1281.683594	28694.777344
1282.589844	28371.416016
1283.495117	28599.958984
1284.401367	28627.058594
1285.306641	28485.742188
1286.211914	28355.421875
1287.117188	28556.496094
1288.021484	28462.052734
1288.926758	27958.652344
1289.831055	28306.222656
1290.736328	28117.707031
1291.640625	28313.380859
1292.544922	27895.308594
1293.448242	27891.902344
1294.352539	27910.617188
1295.255859	27492.251953
1296.159180	27624.343750
1297.063477	27698.367188
1297.965820	27321.259766
1298.869141	27179.324219
1299.772461	27397.281250
1300.674805	26817.761719
1301.577148	26966.486328
1302.480469	26810.533203
1303.381836	27031.345703
1304.284180	26991.738281
1305.186523	27196.027344
1306.087891	27247.916016
1306.990234	27161.187500
1307.891602	26835.933594
1308.792969	27065.296875
1309.694336	26809.265625
1310.594727	26899.970703
1311.496094	26932.427734
1312.396484	26817.791016
1313.296875	26744.751953
1314.197266	26468.998047
1315.097656	26398.648438
1315.998047	26825.451172
1316.897461	26463.445312
1317.797852	26034.626953
1318.697266	26369.880859
1319.596680	26885.916016
1320.496094	26095.546875
1321.394531	26570.007812
1322.293945	26571.871094
1323.192383	26431.882812
1324.091797	26503.269531
1324.990234	26368.783203
1325.888672	26484.707031
1326.786133	26455.937500
1327.684570	26393.748047
1328.582031	26325.966797
1329.480469	26536.646484
1330.377930	26499.501953
1331.275391	26559.849609
1332.171875	26728.880859
1333.069336	26585.851562
1333.966797	26623.943359
1334.863281	26394.421875
1335.759766	26463.162109
1336.656250	26559.812500
1337.552734	26542.136719
1338.448242	27168.875000
1339.344727	26830.425781
1340.240234	26874.179688
1341.135742	27155.197266
1342.031250	27243.687500
1342.926758	27385.257812
1343.822266	27652.544922
1344.717773	27570.785156
1345.612305	27720.865234
1346.506836	27591.585938
1347.401367	27445.494141
1348.295898	27810.845703
1349.190430	27332.068359
1350.083984	27155.095703
1350.978516	27467.451172
1351.872070	27105.833984
1352.765625	26875.572266
1353.659180	26773.937500
1354.552734	26826.181641
1355.446289	26671.318359
1356.338867	26292.445312
1357.231445	26168.232422
1358.125000	26696.476562
1359.016602	26157.753906
1359.909180	26069.867188
1360.801758	25990.355469
1361.694336	26008.898438
1362.585938	25867.681641
1363.477539	25726.416016
1364.369141	25764.546875
1365.260742	25609.189453
1366.152344	25664.138672
1367.042969	25828.513672
1367.934570	25210.126953
1368.825195	25579.335938
1369.715820	25670.802734
1370.606445	25296.292969
1371.497070	25205.236328
1372.386719	25411.820312
1373.277344	25368.498047
1374.166992	25367.296875
1375.056641	25405.431641
1375.946289	25395.804688
1376.835938	25262.501953
1377.724609	25339.992188
1378.614258	24984.509766
1379.502930	24955.113281
1380.391602	25513.548828
1381.280273	25247.927734
1382.168945	25319.849609
1383.057617	24944.349609
1383.946289	25111.937500
1384.833984	25304.919922
1385.721680	24864.460938
1386.609375	24615.339844
1387.497070	25143.503906
1388.384766	24908.427734
1389.272461	24667.634766
1390.159180	24869.187500
1391.045898	24684.671875
1391.932617	24990.599609
1392.819336	24910.361328
1393.706055	24979.552734
1394.592773	24721.589844
1395.478516	24706.142578
1396.365234	24654.007812
1397.250977	24895.337891
1398.136719	24854.507812
1399.022461	24909.640625
1399.907227	24648.568359
1400.792969	24796.871094
1401.677734	25207.896484
1402.562500	24997.583984
1403.448242	24750.468750
1404.332031	24783.027344
1405.216797	25168.894531
1406.101562	25269.380859
1406.985352	25129.574219
1407.869141	25343.201172
1408.753906	25172.246094
1409.637695	25043.662109
1410.520508	25053.669922
1411.404297	24995.765625
1412.288086	24940.669922
1413.170898	24933.677734
1414.053711	25042.763672
1414.936523	24763.933594
1415.819336	24836.207031
1416.702148	24704.544922
1417.583984	25068.658203
1418.466797	24696.121094
1419.348633	24680.566406
1420.230469	24707.527344
1421.112305	24748.673828
1421.994141	24443.875000
1422.875000	24229.728516
1423.756836	24035.363281
1424.637695	24433.902344
1425.518555	24080.591797
1426.399414	23920.154297
1427.280273	23805.080078
1428.161133	23590.593750
1429.041016	23915.564453
1429.921875	23843.029297
1430.801758	24159.632812
1431.681641	23879.708984
1432.561523	23812.808594
1433.440430	24078.412109
1434.320312	24210.503906
1435.199219	23754.117188
1436.079102	23897.572266
1436.958008	23779.417969
1437.836914	23797.761719
1438.715820	23744.984375
1439.593750	24079.185547
1440.472656	23978.052734
1441.350586	23370.199219
1442.228516	23342.929688
1443.106445	23660.203125
1443.984375	23601.644531
1444.862305	23719.673828
1445.739258	23498.710938
1446.617188	23696.546875
1447.494141	23039.449219
1448.371094	23476.714844
1449.248047	23326.826172
1450.125000	23174.033203
1451.000977	23725.626953
1451.877930	23781.078125
1452.753906	23497.044922
1453.629883	23486.845703
1454.505859	23279.718750
1455.381836	23238.076172
1456.257812	23239.242188
1457.132812	23368.904297
1458.008789	23335.820312
1458.883789	23354.140625
1459.758789	23326.753906
1460.633789	23053.621094
1461.508789	23220.509766
1462.382812	23224.527344
1463.257812	23151.353516
1464.131836	23275.453125
1465.005859	23213.701172
1465.879883	23157.646484
1466.753906	22955.667969
1467.627930	23159.933594
1468.500977	23075.220703
1469.375000	22904.605469
1470.248047	23054.572266
1471.121094	23133.003906
1471.994141	22982.355469
1472.867188	23169.644531
1473.739258	23273.917969
1474.612305	22796.566406
1475.484375	22960.992188
1476.356445	22835.974609
1477.228516	23009.062500
1478.100586	23199.412109
1478.971680	23019.880859
1479.843750	22820.208984
1480.714844	23056.523438
1481.586914	23026.074219
1482.458008	22720.113281
1483.328125	22835.978516
1484.199219	22983.460938
1485.070312	23108.023438
1485.940430	22730.068359
1486.811523	22863.246094
1487.681641	22760.900391
1488.551758	22589.560547
1489.420898	22653.808594
1490.291016	22904.906250
1491.161133	22684.628906
1492.030273	22702.919922
1492.899414	22456.648438
1493.768555	22831.558594
1494.637695	22467.275391
1495.506836	22822.173828
1496.375977	22722.513672
1497.244141	22841.562500
1498.112305	22595.054688
1498.980469	22227.533203
1499.848633	22680.603516
1500.716797	22698.916016
1501.584961	22069.076172
1502.452148	22502.179688
1503.320312	22295.697266
1504.187500	22175.607422
1505.054688	22366.804688
1505.921875	22312.998047
1506.789062	22103.451172
1507.655273	22170.714844
1508.522461	22044.724609
1509.388672	22178.357422
1510.254883	21902.269531
1511.121094	21709.785156
1511.987305	21999.306641
1512.853516	21928.031250
1513.718750	21928.921875
1514.584961	21860.496094
1515.450195	22141.572266
1516.315430	22107.828125
1517.180664	22120.304688
1518.045898	21939.144531
1518.910156	22191.519531
1519.775391	22085.478516
1520.639648	21849.275391
1521.503906	21939.802734
1522.368164	21981.183594
1523.232422	22155.664062
1524.096680	21815.134766
1524.959961	22148.822266
1525.824219	21857.382812
1526.687500	21837.984375
1527.550781	22021.271484
1528.414062	21660.150391
1529.277344	21716.015625
1530.139648	21557.513672
1531.002930	21746.671875
1531.865234	22101.085938
1532.727539	22035.322266
1533.589844	21734.705078
1534.452148	21889.224609
1535.314453	21762.484375
1536.175781	21847.445312
1537.038086	21790.279297
1537.899414	21675.060547
1538.760742	21693.298828
1539.622070	21876.990234
1540.483398	21874.947266
1541.344727	21864.189453
1542.205078	21804.058594
1543.066406	21630.625000
1543.926758	21706.970703
1544.787109	21623.535156
1545.647461	21685.373047
1546.506836	22090.212891
1547.367188	21887.603516
1548.227539	21748.892578
1549.086914	21816.607422
1549.946289	22044.320312
1550.805664	21960.833984
1551.665039	22019.888672
1552.523438	21753.031250
1553.382812	22289.410156
1554.241211	22278.681641
1555.100586	21982.613281
1555.958984	22032.982422
1556.817383	21961.039062
1557.674805	22180.378906
1558.533203	22207.498047
1559.391602	22158.855469
1560.249023	21914.919922
1561.106445	22169.380859
1561.963867	22283.978516
1562.821289	22459.855469
1563.678711	22367.460938
1564.535156	22409.222656
1565.392578	22226.341797
1566.249023	22411.078125
1567.105469	22376.982422
1567.961914	22377.902344
1568.818359	23000.701172
1569.674805	22604.591797
1570.530273	22649.357422
1571.386719	22545.162109
1572.242188	22794.443359
1573.097656	22710.689453
1573.953125	22498.312500
1574.808594	22753.558594
1575.663086	22973.808594
1576.518555	22284.730469
1577.373047	22940.742188
1578.227539	22821.820312
1579.082031	22635.566406
1579.936523	22750.640625
1580.791016	22719.419922
1581.644531	22740.876953
1582.499023	22595.466797
1583.352539	22508.566406
1584.206055	22559.281250
1585.059570	23034.738281
1585.913086	22827.751953
1586.766602	22746.689453
1587.619141	22448.730469
1588.472656	22754.482422
1589.325195	22479.875000
1590.177734	22744.687500
1591.030273	22889.349609
1591.882812	22866.871094
1592.734375	23178.822266
1593.586914	23388.181641
1594.438477	23392.187500
1595.290039	23217.146484
1596.141602	23755.414062
1596.993164	23624.416016
1597.844727	24039.595703
1598.696289	24067.207031
1599.546875	24165.332031
1600.397461	24001.992188
1601.248047	24382.251953
1602.098633	24057.236328
1602.949219	23923.187500
1603.799805	23889.058594
1604.649414	23949.019531
1605.500000	23458.994141
1606.349609	23057.052734
1607.199219	23269.894531
1608.048828	22717.703125
1608.898438	22777.509766
1609.748047	22651.880859
1610.596680	22202.345703
1611.445312	22173.751953
1612.294922	22463.230469
1613.143555	22517.148438
1613.992188	22055.494141
1614.839844	21844.152344
1615.688477	21777.152344
1616.536133	21945.949219
1617.384766	21660.771484
1618.232422	21800.117188
1619.080078	21730.111328
1619.927734	21477.195312
1620.774414	21454.314453
1621.622070	21508.142578
1622.468750	21287.521484
1623.316406	21314.773438
1624.163086	20972.998047
1625.009766	20885.042969
1625.856445	21275.492188
1626.702148	20995.562500
1627.548828	21129.136719
1628.394531	20922.955078
1629.241211	20837.869141
1630.086914	21036.509766
1630.932617	20847.941406
1631.777344	20975.687500
1632.623047	20695.365234
1633.468750	20728.476562
1634.313477	20672.849609
1635.158203	20874.621094
1636.002930	20895.939453
1636.847656	20689.357422
1637.692383	20861.626953
1638.536133	20512.845703
1639.380859	20696.988281
1640.224609	20679.787109
1641.068359	20621.105469
1641.912109	20553.515625
1642.755859	20539.240234
1643.599609	20762.072266
1644.443359	20457.316406
1645.286133	20440.050781
1646.128906	20336.783203
1646.971680	20536.001953
1647.814453	20441.611328
1648.657227	20243.345703
1649.500000	20528.705078
1650.342773	20371.935547
1651.184570	20574.294922
1652.026367	20441.230469
1652.868164	20219.035156
1653.709961	20365.041016
1654.551758	20267.515625
1655.393555	20125.392578
1656.234375	20277.396484
1657.076172	19998.511719
1657.916992	20290.251953
1658.757812	20070.734375
1659.598633	19800.591797
1660.439453	20181.664062
1661.279297	20080.994141
1662.120117	20045.740234
1662.959961	19888.474609
1663.799805	20019.832031
1664.639648	19865.484375
1665.479492	19776.578125
1666.319336	19592.359375
1667.159180	19926.261719
1667.998047	19971.355469
1668.837891	19676.845703
1669.676758	19984.115234
1670.515625	19886.193359
1671.354492	19642.187500
1672.192383	19794.585938
1673.031250	19908.275391
1673.869141	19497.148438
1674.708008	19554.154297
1675.545898	19930.373047
1676.383789	19584.677734
1677.221680	19277.658203
1678.058594	19794.300781
1678.896484	19517.060547
1679.733398	19475.595703
1680.571289	19574.466797
1681.408203	19583.769531
1682.245117	19605.023438
1683.082031	19488.849609
1683.917969	19348.728516
1684.754883	19531.341797
1685.590820	19217.804688
1686.427734	19445.302734
1687.263672	19000.070312
1688.099609	19347.238281
1688.935547	19362.492188
1689.770508	19138.408203
1690.606445	19012.992188
1691.441406	19150.900391
1692.276367	19163.134766
1693.111328	19271.173828
1693.946289	18954.056641
1694.781250	19130.976562
1695.616211	19263.027344
1696.450195	18739.031250
1697.285156	18763.187500
1698.119141	19060.068359
1698.953125	18640.675781
1699.787109	18916.650391
1700.621094	18994.822266
1701.454102	18881.089844
1702.288086	18710.330078
1703.121094	18827.505859
1703.954102	19043.732422
1704.788086	18980.945312
1705.620117	18981.166016
1706.453125	18750.234375
1707.286133	18672.351562
1708.118164	18762.607422
1708.951172	18516.501953
1709.783203	18456.560547
1710.615234	18808.214844
1711.447266	18739.287109
1712.279297	18402.841797
1713.110352	18547.248047
1713.942383	18592.486328
1714.773438	18472.351562
1715.604492	18355.181641
1716.435547	18544.796875
1717.266602	18433.615234
1718.097656	18572.152344
1718.928711	18454.916016
1719.758789	18289.480469
1720.588867	18367.847656
1721.419922	18714.230469
1722.250000	18545.740234
1723.079102	18557.921875
1723.909180	18238.710938
1724.739258	18329.185547
1725.568359	18413.662109
1726.398438	18260.044922
1727.227539	18582.699219
1728.056641	18284.326172
1728.885742	18242.187500
1729.713867	18335.767578
1730.542969	18453.509766
1731.371094	17970.857422
1732.200195	18305.857422
1733.028320	18631.916016
1733.856445	18357.341797
1734.684570	18463.107422
1735.511719	18315.244141
1736.339844	18360.630859
1737.167969	18245.927734
1737.995117	18146.291016
1738.822266	18394.134766
1739.649414	18149.414062
1740.476562	18225.037109
1741.303711	18140.443359
1742.129883	18219.111328
1742.957031	18294.783203
1743.783203	18043.783203
1744.609375	18028.685547
1745.435547	18397.878906
1746.261719	18074.132812
1747.087891	18146.810547
1747.913086	18122.634766
1748.739258	18162.037109
1749.564453	18183.281250
1750.389648	18065.195312
1751.214844	18225.789062
1752.040039	17904.654297
1752.865234	17977.386719
1753.689453	18001.644531
1754.514648	18125.953125
1755.338867	18329.138672
1756.163086	17956.191406
1756.987305	18229.177734
1757.811523	17910.693359
1758.635742	18423.460938
1759.458984	18311.257812
1760.283203	18180.804688
1761.106445	18344.771484
1761.929688	18029.068359
1762.752930	17880.279297
1763.576172	18126.281250
1764.399414	18056.437500
1765.221680	17922.767578
1766.044922	18181.052734
1766.867188	18102.064453
1767.689453	18032.166016
1768.511719	17974.406250
1769.333984	18035.218750
1770.156250	18193.375000
1770.978516	18318.123047
1771.799805	18239.072266
1772.621094	18126.521484
1773.442383	18178.277344
1774.264648	18169.171875
1775.084961	18175.285156
1775.906250	18424.994141
1776.727539	18047.421875
1777.547852	17974.320312
1778.368164	18093.121094
1779.189453	18093.126953
1780.009766	17891.998047
1780.830078	17797.480469
1781.649414	18019.980469
1782.469727	18318.779297
1783.289062	17644.865234
1784.109375	17974.201172
1784.928711	17818.603516
1785.748047	17885.683594
1786.567383	18035.179688
1787.386719	17867.300781
1788.205078	17879.472656
1789.024414	18138.955078
1789.842773	18044.296875
1790.661133	17873.250000
1791.479492	18019.835938
1792.297852	17900.666016
1793.116211	17812.011719
1793.933594	17845.576172
1794.751953	17937.232422
1795.569336	18099.236328
1796.386719	18062.535156
1797.205078	18252.138672
1798.021484	17967.683594
1798.838867	18034.958984
1799.656250	17493.339844
1800.472656	17713.576172
1801.290039	17823.691406
1802.106445	17936.906250
1802.922852	18065.468750
1803.739258	17946.013672
1804.555664	17927.595703
1805.371094	17664.093750
1806.187500	17927.509766
1807.002930	18043.916016
1807.818359	18019.369141
1808.634766	17954.962891
1809.449219	17577.792969
1810.264648	17948.744141
1811.080078	17734.001953
1811.894531	17712.447266
1812.709961	17825.880859
1813.524414	17976.177734
1814.338867	17491.205078
1815.153320	17727.447266
1815.967773	17813.326172
1816.782227	17367.998047
1817.595703	17877.675781
1818.410156	17604.226562
1819.223633	17662.490234
1820.037109	17594.787109
1820.850586	17742.193359
1821.664062	17622.224609
1822.477539	17560.628906
1823.290039	17738.849609
1824.102539	17588.064453
1824.916016	17664.845703
1825.728516	17541.683594
1826.541016	17793.865234
1827.353516	17695.300781
1828.165039	17421.259766
1828.977539	17602.742188
1829.789062	17371.697266
1830.601562	17337.664062
1831.413086	17630.101562
1832.224609	17679.273438
1833.036133	17454.246094
1833.847656	17537.300781
1834.658203	17685.107422
1835.469727	17401.396484
1836.280273	17361.156250
1837.090820	17509.005859
1837.901367	17619.894531
1838.711914	17372.994141
1839.522461	17169.205078
1840.333008	17033.230469
1841.142578	17190.404297
1841.952148	17437.146484
1842.762695	17211.617188
1843.572266	17013.800781
1844.381836	17180.337891
1845.190430	17322.222656
1846.000000	17281.878906
1846.808594	17358.939453
1847.618164	17256.779297
1848.426758	17021.675781
1849.235352	17151.283203
1850.043945	17447.898438
1850.852539	17234.353516
1851.661133	17203.224609
1852.468750	16992.658203
1853.277344	17137.835938
1854.084961	17267.587891
1854.892578	17025.976562
1855.700195	16895.722656
1856.507812	17195.783203
1857.315430	17077.900391
1858.122070	16950.685547
1858.928711	17058.849609
1859.736328	16631.062500
1860.542969	17011.894531
1861.349609	17058.136719
1862.156250	17067.197266
1862.962891	16936.748047
1863.768555	16896.177734
1864.575195	16917.619141
1865.380859	16867.724609
1866.186523	16991.544922
1866.992188	16891.998047
1867.797852	16997.242188
1868.603516	16820.064453
1869.408203	16506.232422
1870.213867	16726.345703
1871.018555	16667.039062
1871.824219	16983.537109
1872.628906	16902.507812
1873.433594	16799.701172
1874.237305	16880.205078
1875.041992	16935.869141
1875.846680	16606.087891
1876.650391	16730.125000
1877.454102	16642.748047
1878.257812	16598.884766
1879.061523	16816.300781
1879.865234	16411.550781
1880.668945	16629.007812
1881.471680	16566.435547
1882.275391	16868.033203
1883.078125	16774.347656
1883.880859	16552.960938
1884.683594	16904.537109
1885.486328	16732.935547
1886.289062	16900.851562
1887.090820	16881.869141
1887.893555	16545.005859
1888.695312	16744.142578
1889.497070	16609.775391
1890.298828	16637.500000
1891.100586	16746.312500
1891.902344	16777.185547
1892.704102	16786.232422
1893.504883	16657.998047
1894.306641	16957.240234
1895.107422	16763.447266
1895.908203	16772.494141
1896.708984	16806.521484
1897.509766	16874.908203
1898.309570	16771.541016
1899.110352	16643.150391
1899.910156	16814.642578
1900.710938	16773.707031
1901.510742	16814.015625
1902.310547	16635.529297
1903.109375	16738.353516
1903.909180	16644.218750
1904.708984	16434.339844
1905.507812	16724.853516
1906.307617	16452.347656
1907.106445	16436.324219
1907.905273	16392.128906
1908.704102	16588.927734
1909.501953	16741.962891
1910.300781	16484.884766
1911.098633	16371.772461
1911.897461	16268.016602
1912.695312	16411.701172
1913.493164	16489.638672
1914.291016	16410.917969
1915.088867	16441.865234
1915.886719	16482.228516
1916.683594	16651.146484
1917.480469	16528.498047
1918.278320	16201.950195
1919.075195	16342.673828
1919.872070	16003.435547
1920.668945	16250.858398
1921.464844	16178.250977
1922.261719	16086.785156
1923.057617	16670.261719
1923.854492	16371.609375
1924.650391	16063.436523
1925.446289	16320.537109
1926.242188	16508.609375
1927.038086	16322.842773
1927.833008	16404.130859
1928.628906	16010.838867
1929.423828	16085.813477
1930.218750	16270.856445
1931.013672	16094.325195
1931.808594	16175.638672
1932.603516	16354.496094
1933.398438	16322.615234
1934.192383	16145.972656
1934.987305	16007.038086
1935.781250	16283.566406
1936.575195	16172.941406
1937.369141	16100.065430
1938.163086	16260.218750
1938.957031	16036.136719
1939.750000	16060.862305
1940.543945	16154.917969
1941.336914	15921.250000
1942.129883	15945.966797
1942.922852	16279.639648
1943.715820	16052.180664
1944.508789	15928.711914
1945.301758	15887.208984
1946.093750	15842.536133
1946.885742	15826.245117
1947.678711	15863.594727
1948.470703	15620.052734
1949.262695	16023.559570
1950.054688	16083.059570
1950.845703	15785.749023
1951.637695	16044.201172
1952.428711	15756.259766
1953.220703	15920.010742
1954.011719	15932.141602
1954.802734	15836.821289
1955.593750	15871.068359
1956.383789	15728.283203
1957.174805	15832.084961
1957.964844	15774.632812
1958.755859	15827.867188
1959.545898	15874.791016
1960.335938	15633.797852
1961.125977	15829.442383
1961.916016	15654.828125
1962.706055	15742.906250
1963.495117	15533.389648
1964.284180	15570.808594
1965.074219	15747.597656
1965.863281	15636.177734
1966.652344	15803.531250
1967.441406	15587.509766
1968.230469	15520.376953
1969.018555	15789.228516
1969.807617	15544.562500
1970.595703	15759.600586
1971.383789	15527.532227
1972.171875	15666.509766
1972.959961	15612.009766
1973.748047	15395.664062
1974.536133	15667.978516
1975.323242	15267.470703
1976.110352	15552.551758
1976.898438	15491.632812
1977.685547	15167.111328
1978.472656	15426.906250
1979.259766	15378.641602
1980.045898	15476.515625
1980.833008	15482.265625
1981.619141	15468.946289
1982.406250	15331.646484
1983.192383	15534.495117
1983.978516	15651.552734
1984.764648	15186.626953
1985.550781	15440.446289
1986.335938	15360.291992
1987.122070	15372.389648
1987.907227	15476.784180
1988.693359	15749.916992
1989.478516	15360.947266
1990.263672	15328.472656
1991.047852	15337.386719
1991.833008	15553.341797
1992.618164	15476.280273
1993.402344	15529.830078
1994.187500	15459.111328
1994.971680	15375.620117
1995.755859	15231.531250
1996.540039	15291.449219
1997.323242	15258.909180
1998.107422	15248.683594
1998.891602	15145.945312
1999.674805	15381.364258
2000.458008	15170.117188
2001.241211	15105.611328
2002.024414	15468.822266
2002.807617	15018.038086
2003.590820	15138.674805
2004.374023	15141.185547
2005.156250	15312.989258
2005.938477	14960.914062
2006.720703	14899.490234
2007.503906	15250.301758
2008.285156	15067.444336
2009.067383	15006.004883
2009.849609	15123.598633
2010.630859	15180.469727
2011.413086	15029.461914
2012.194336	15150.314453
2012.975586	15200.818359
2013.756836	14838.534180
2014.538086	15039.427734
2015.319336	14849.855469
2016.099609	14951.566406
2016.880859	14982.863281
2017.661133	14796.386719
2018.441406	14936.576172
2019.221680	14884.587891
2020.001953	15034.450195
2020.782227	14883.109375
2021.562500	14972.119141
2022.341797	14974.598633
2023.122070	14893.711914
2023.901367	15271.389648
2024.680664	15059.018555
2025.459961	14926.776367
2026.239258	14810.533203
2027.018555	14967.019531
2027.796875	15129.976562
2028.576172	14638.123047
2029.354492	14781.815430
2030.132812	14720.038086
2030.912109	14751.379883
2031.689453	14952.980469
2032.467773	14833.370117
2033.246094	14916.157227
2034.024414	14786.858398
2034.801758	14901.807617
2035.579102	14714.593750
2036.356445	14614.134766
2037.133789	14828.805664
2037.911133	14686.516602
2038.688477	14756.503906
2039.465820	14575.543945
2040.242188	14919.072266
2041.019531	15105.000977
2041.795898	14866.062500
2042.572266	14392.006836
2043.348633	14462.010742
2044.125000	14490.167969
2044.901367	14663.291992
2045.676758	14778.479492
2046.453125	14397.462891
2047.228516	14573.878906
2048.003906	14521.490234
2048.779297	14543.233398
2049.554688	14387.637695
2050.330078	14651.241211
2051.105469	14431.099609
2051.879883	14407.675781
2052.654297	14387.470703
2053.429688	14496.343750
2054.204102	14569.747070
2054.978516	14675.457031
2055.752930	14642.365234
2056.526367	14412.275391
2057.300781	14427.575195
2058.075195	14287.823242
2058.848633	14370.955078
2059.622070	14644.766602
2060.395508	14479.124023
2061.168945	14584.954102
2061.942383	14396.614258
2062.715820	14512.165039
2063.488281	14436.943359
2064.261719	14287.299805
2065.034180	14412.593750
2065.806641	14266.131836
2066.579102	14054.895508
2067.351562	14345.286133
2068.124023	14250.535156
2068.896484	14201.082031
2069.667969	14038.268555
2070.440430	14137.751953
2071.211914	14085.014648
2071.983398	14093.818359
2072.754883	14342.420898
2073.526367	14179.494141
2074.297852	14071.620117
2075.068359	14109.604492
2075.839844	14066.534180
2076.610352	14282.903320
2077.380859	14064.686523
2078.151367	14005.366211
2078.921875	14127.731445
2079.692383	14016.475586
2080.462891	13976.590820
2081.232422	14001.619141
2082.002930	13913.013672
2082.772461	14142.628906
2083.541992	13813.666016
2084.311523	13984.865234
2085.081055	14029.408203
2085.850586	13908.235352
2086.620117	13946.279297
2087.388672	13792.545898
2088.158203	13934.619141
2088.926758	13722.300781
2089.695312	13900.184570
2090.463867	13638.997070
2091.232422	14008.871094
2092.000977	13988.401367
2092.768555	13922.363281
2093.537109	14188.306641
2094.304688	13826.029297
2095.072266	13935.754883
2095.840820	13840.353516
2096.608398	13810.061523
2097.375000	13874.230469
2098.142578	14019.874023
2098.910156	13715.864258
2099.676758	13757.233398
2100.444336	13788.835938
2101.210938	13813.927734
2101.977539	13966.200195
2102.744141	14226.147461
2103.510742	14078.440430
2104.276367	13774.086914
2105.042969	13684.989258
2105.808594	13899.371094
2106.575195	13869.017578
2107.340820	13521.986328
2108.106445	13742.975586
2108.872070	13856.269531
2109.636719	13711.568359
2110.402344	13743.224609
2111.167969	13634.397461
2111.932617	13420.963867
2112.697266	13527.757812
2113.461914	13621.511719
2114.226562	13457.010742
2114.991211	13684.851562
2115.755859	13762.323242
2116.520508	13627.202148
2117.284180	13652.342773
2118.048828	13559.695312
2118.812500	13489.925781
2119.576172	13387.400391
2120.339844	13157.165039
2121.103516	13355.784180
2121.866211	13459.499023
2122.629883	13373.276367
2123.392578	13375.473633
2124.156250	13272.825195
2124.918945	13373.315430
2125.681641	13119.866211
2126.444336	13233.475586
2127.207031	13150.406250
2127.969727	13529.665039
2128.731445	13246.556641
2129.494141	13288.094727
2130.255859	13218.100586
2131.017578	13312.147461
2131.779297	12953.333008
2132.541016	13316.519531
2133.302734	13069.206055
2134.064453	13268.357422
2134.825195	13332.931641
2135.586914	13266.145508
2136.347656	13219.046875
2137.108398	13165.362305
2137.869141	13026.219727
2138.629883	12946.190430
2139.390625	13148.834961
2140.150391	13049.072266
2140.911133	13067.655273
2141.670898	12846.159180
2142.430664	13242.990234
2143.191406	12995.129883
2143.951172	12970.938477
2144.710938	13045.467773
2145.469727	13231.933594
2146.229492	12937.818359
2146.988281	13117.740234
2147.748047	12741.179688
2148.506836	12802.555664
2149.265625	13002.308594
2150.024414	12902.302734
2150.783203	12851.693359
2151.541992	12771.404297
2152.299805	12941.614258
2153.058594	12858.015625
2153.816406	12949.155273
2154.574219	13000.748047
2155.332031	12834.652344
2156.089844	12602.520508
2156.847656	12931.250000
2157.605469	12890.466797
2158.363281	12595.514648
2159.120117	12699.916992
2159.876953	12675.583984
2160.634766	12618.218750
2161.391602	12610.376953
2162.148438	12529.857422
2162.904297	12624.420898
2163.661133	12788.409180
2164.417969	12767.368164
2165.173828	12620.708008
2165.930664	12612.856445
2166.686523	12492.576172
2167.442383	12603.758789
2168.198242	12870.442383
2168.954102	12386.231445
2169.708984	12434.583008
2170.464844	12502.805664
2171.219727	12501.542969
2171.975586	12218.889648
2172.730469	12350.018555
2173.485352	12265.940430
2174.240234	12572.659180
2174.995117	12240.141602
2175.749023	12338.226562
2176.503906	12323.676758
2177.257812	12246.151367
2178.011719	12178.544922
2178.766602	12120.861328
2179.520508	12192.477539
2180.274414	12247.534180
2181.027344	12126.810547
2181.781250	12334.478516
2182.535156	12134.095703
2183.288086	12126.124023
2184.041016	11972.108398
2184.793945	12286.115234
2185.546875	12178.556641
2186.299805	12110.812500
2187.052734	12162.611328
2187.805664	11932.071289
2188.557617	12336.030273
2189.310547	12334.724609
2190.062500	11987.775391
2190.814453	12182.528320
2191.566406	12011.641602
2192.318359	12020.254883
2193.070312	12005.590820
2193.822266	11857.874023
2194.573242	11959.614258
2195.324219	11888.368164
2196.076172	11743.885742
2196.827148	11898.909180
2197.578125	11667.830078
2198.329102	11906.126953
2199.080078	11841.471680
2199.830078	11670.217773
2200.581055	11768.724609
2201.331055	11594.070312
2202.081055	11539.317383
2202.832031	11751.162109
2203.582031	11546.418945
2204.331055	11594.977539
2205.081055	11443.490234
2205.831055	11568.750000
2206.580078	11900.846680
2207.330078	11669.270508
2208.079102	11864.694336
2208.828125	11876.641602
2209.577148	11484.741211
2210.326172	11600.113281
2211.075195	11565.280273
2211.823242	11710.754883
2212.572266	11739.384766
2213.320312	11527.517578
2214.069336	11526.057617
2214.817383	11437.719727
2215.565430	11636.761719
2216.313477	11381.286133
2217.060547	11727.478516
2217.808594	11709.329102
2218.556641	11447.050781
2219.303711	11445.572266
2220.050781	11367.153320
2220.797852	11603.211914
2221.544922	11481.289062
2222.291992	11432.958008
2223.039062	11605.541016
2223.786133	11409.902344
2224.532227	11294.564453
2225.279297	11242.820312
2226.025391	11690.151367
2226.771484	11343.639648
2227.517578	11392.398438
2228.263672	11454.578125
2229.009766	11426.278320
2229.754883	11170.009766
2230.500977	11406.532227
2231.246094	11187.063477
2231.992188	11383.416992
2232.737305	11271.217773
2233.482422	11387.125977
2234.227539	11425.892578
2234.971680	11400.904297
2235.716797	11385.977539
2236.461914	11156.180664
2237.206055	11413.191406
2237.950195	11512.442383
2238.694336	11393.396484
2239.438477	11422.126953
2240.182617	11286.226562
2240.926758	11704.771484
2241.670898	11202.513672
2242.414062	11382.503906
2243.158203	11374.269531
2243.901367	11110.465820
2244.644531	11192.992188
2245.387695	11161.175781
2246.130859	11425.413086
2246.874023	11117.700195
2247.617188	11392.112305
2248.359375	11245.860352
2249.101562	11163.526367
2249.844727	11087.898438
2250.586914	11460.145508
2251.329102	11428.327148
2252.071289	11268.486328
2252.813477	11354.551758
2253.554688	11069.960938
2254.296875	11287.466797
2255.038086	10861.192383
2255.780273	11307.995117
2256.521484	11178.324219
2257.262695	10981.159180
2258.003906	11114.497070
2258.745117	11227.635742
2259.485352	11064.123047
2260.226562	11038.923828
2260.966797	11050.843750
2261.708008	11204.554688
2262.448242	11155.729492
2263.188477	11069.740234
2263.928711	10953.326172
2264.668945	11221.974609
2265.408203	10990.671875
2266.148438	11073.558594
2266.888672	11166.610352
2267.627930	10877.720703
2268.367188	10930.200195
2269.106445	10891.399414
2269.845703	10987.862305
2270.584961	10976.117188
2271.324219	11218.093750
2272.062500	11057.503906
2272.801758	11099.909180
2273.540039	11047.557617
2274.278320	10744.681641
2275.016602	10942.800781
2275.754883	10934.417969
2276.493164	10942.966797
2277.231445	10907.482422
2277.969727	10943.131836
2278.707031	11005.901367
2279.444336	10750.119141
2280.182617	10768.811523
2280.919922	10763.779297
2281.657227	11101.207031
2282.394531	10845.272461
2283.131836	10863.991211
2283.868164	10920.031250
2284.605469	10904.838867
2285.341797	10828.557617
2286.078125	11006.803711
2286.814453	10866.017578
2287.550781	10844.013672
2288.287109	10832.190430
2289.023438	10749.041016
2289.759766	10754.181641
2290.495117	10851.050781
2291.231445	10924.165039
2291.966797	10793.398438
2292.702148	10560.619141
2293.437500	10657.517578
2294.172852	10689.845703
2294.908203	10552.153320
2295.643555	10788.544922
2296.377930	10548.771484
2297.113281	10696.779297
2297.847656	10610.039062
2298.582031	10441.588867
2299.316406	10688.365234
2300.050781	10996.500977
2300.785156	10596.487305
2301.519531	10574.365234
2302.252930	10480.707031
2302.987305	10543.725586
2303.720703	10838.457031
2304.454102	10547.141602
2305.187500	10514.766602
2305.920898	10571.011719
2306.654297	10337.471680
2307.387695	10458.496094
2308.121094	10627.307617
2308.853516	10373.194336
2309.585938	10432.872070
2310.319336	10393.615234
2311.051758	10565.936523
2311.784180	10543.753906
2312.516602	10449.872070
2313.248047	10526.680664
2313.980469	10364.465820
2314.712891	10325.157227
2315.444336	10234.593750
2316.175781	10458.332031
2316.907227	10138.808594
2317.638672	10318.171875
2318.370117	10326.677734
2319.101562	10239.458984
2319.833008	10268.470703
2320.563477	10215.412109
2321.294922	10418.875000
2322.025391	10023.716797
2322.755859	10131.408203
2323.486328	10382.865234
2324.216797	9912.208984
2324.947266	10132.902344
2325.677734	10213.289062
2326.407227	10211.515625
2327.137695	10062.469727
2327.867188	10091.500977
2328.596680	9911.551758
2329.327148	10197.562500
2330.055664	10068.978516
2330.785156	10056.895508
2331.514648	10192.223633
2332.244141	9912.708008
2332.972656	9938.315430
2333.702148	9792.434570
2334.430664	10095.899414
2335.159180	9761.290039
2335.887695	9769.730469
2336.616211	9973.805664
2337.344727	9886.166992
2338.072266	9959.862305
2338.800781	9789.781250
2339.528320	9932.170898
2340.255859	10016.212891
2340.984375	9942.250977
2341.711914	9875.135742
2342.439453	9828.619141
2343.166016	9830.206055
2343.893555	9725.225586
2344.621094	9499.871094
2345.347656	9783.386719
2346.074219	9668.028320
2346.801758	9686.789062
2347.528320	9708.995117
2348.254883	9886.054688
2348.981445	9653.623047
2349.707031	9892.688477
2350.433594	9725.593750
2351.159180	9864.892578
2351.885742	9556.542969
2352.611328	9654.527344
2353.336914	9566.517578
2354.062500	9674.870117
2354.788086	9610.957031
2355.513672	9464.304688
2356.238281	9665.765625
2356.963867	9919.005859
2357.688477	9651.642578
2358.414062	9666.995117
2359.138672	9389.156250
2359.863281	9594.214844
2360.587891	9423.239258
2361.312500	9435.111328
2362.036133	9636.825195
2362.760742	9486.484375
2363.484375	9539.804688
2364.208984	9458.464844
2364.932617	9653.403320
2365.656250	9451.151367
2366.379883	9463.040039
2367.103516	9443.832031
2367.826172	9628.524414
2368.549805	9353.548828
2369.273438	9455.313477
2369.996094	9429.175781
2370.718750	9486.027344
2371.441406	9082.873047
2372.164062	9461.409180
2372.886719	9286.476562
2373.609375	9229.144531
2374.332031	9254.858398
2375.053711	9377.505859
2375.776367	9261.302734
2376.498047	9262.793945
2377.219727	9319.698242
2377.941406	9078.730469
2378.663086	9256.876953
2379.384766	9289.552734
2380.106445	9135.099609
2380.827148	9126.172852
2381.548828	9120.708984
2382.269531	9236.594727
2382.990234	9078.564453
2383.710938	9107.772461
2384.431641	9119.645508
2385.152344	9204.379883
2385.873047	8973.372070
2386.593750	8978.287109
2387.313477	9160.228516
2388.034180	9109.627930
2388.753906	9138.872070
2389.473633	9109.086914
2390.193359	9096.659180
2390.913086	8993.906250
2391.632812	9096.112305
2392.352539	9031.549805
2393.071289	9057.332031
2393.791016	9020.551758
2394.509766	8768.204102
2395.228516	8707.023438
2395.947266	8983.170898
2396.666016	9082.009766
2397.384766	8923.439453
2398.103516	8910.956055
2398.821289	8724.466797
2399.540039	8760.675781
2400.257812	8817.782227
2400.976562	8808.754883
2401.694336	8716.149414
2402.412109	8950.900391
2403.129883	8586.582031
2403.846680	8706.416992
2404.564453	8596.311523
2405.282227	8775.431641
2405.999023	8578.161133
2406.715820	8603.942383
2407.433594	8650.652344
2408.150391	8491.625977
2408.867188	8622.041992
2409.583984	8780.406250
2410.299805	8760.882812
2411.016602	8730.884766
2411.732422	8791.619141
2412.449219	8866.334961
2413.165039	8466.265625
2413.880859	8645.708008
2414.596680	8622.649414
2415.312500	8341.107422
2416.028320	8317.992188
2416.744141	8476.559570
2417.458984	8523.350586
2418.174805	8542.194336
2418.889648	8519.095703
2419.604492	8677.795898
2420.319336	8437.906250
2421.034180	8509.208984
2421.749023	8591.028320
2422.463867	8186.576660
2423.177734	8509.807617
2423.892578	8434.180664
2424.606445	8491.537109
2425.321289	8629.429688
2426.035156	8238.664062
2426.749023	8278.506836
2427.462891	8290.341797
2428.175781	8204.096680
2428.889648	8373.584961
2429.603516	7964.941895
2430.316406	8383.280273
2431.029297	8279.466797
2431.743164	8203.666016
2432.456055	8229.526367
2433.168945	8185.254883
2433.881836	8070.819336
2434.593750	8331.711914
2435.306641	8196.209961
2436.018555	8250.162109
2436.731445	7984.741699
2437.443359	8000.062988
2438.155273	8127.737793
2438.867188	8202.781250
2439.579102	8095.223145
2440.291016	8089.495117
2441.002930	8062.686035
2441.713867	8060.464355
2442.425781	8002.013184
2443.136719	7925.968750
2443.847656	7994.031250
2444.558594	8016.407715
2445.269531	8007.142578
2445.980469	7846.638672
2446.691406	8108.202148
2447.402344	7923.035156
2448.112305	7970.048340
2448.823242	7953.728027
2449.533203	7919.802246
2450.243164	7906.988770
2450.953125	7964.591309
2451.663086	7832.045898
2452.373047	7977.708496
2453.083008	7816.939941
2453.791992	7863.994141
2454.501953	7752.489746
2455.210938	7958.146973
2455.919922	7814.896484
2456.628906	7671.599609
2457.337891	7817.397949
2458.046875	7698.742188
2458.755859	7597.684082
2459.464844	7807.040527
2460.172852	7702.438477
2460.881836	7830.712402
2461.589844	7789.611328
2462.297852	7557.873047
2463.005859	7647.347656
2463.713867	7705.070312
2464.421875	7702.770996
2465.129883	7562.709961
2465.837891	7694.636230
2466.544922	7529.794434
2467.251953	7690.029785
2467.959961	7507.460938
2468.666992	7490.985352
2469.374023	7665.433105
2470.081055	7677.267578
2470.788086	7646.663574
2471.494141	7594.824707
2472.201172	7557.121094
2472.907227	7721.102051
2473.614258	7467.520020
2474.320312	7620.919434
2475.026367	7430.964844
2475.732422	7396.744141
2476.438477	7366.053711
2477.144531	7459.321289
2477.849609	7588.042969
2478.555664	7305.810059
2479.260742	7409.742676
2479.966797	7563.327148
2480.671875	7355.394043
2481.376953	7466.474121
2482.082031	7332.922363
2482.787109	7358.918945
2483.491211	7441.676270
2484.196289	7332.888672
2484.901367	7621.461426
2485.605469	7480.729004
2486.309570	7464.177246
2487.013672	7408.570801
2487.717773	7289.039062
2488.421875	7336.365723
2489.125977	7309.124512
2489.830078	7225.040039
2490.533203	7315.010742
2491.237305	7408.562988
2491.940430	7359.991699
2492.643555	7464.244141
2493.347656	7408.555664
2494.050781	7441.737793
2494.752930	7254.451660
2495.456055	7216.485840
2496.159180	7295.896484
2496.861328	7339.754395
2497.564453	7216.382324
2498.266602	7046.704102
2498.968750	7222.244141
2499.670898	7177.115234
2500.373047	7153.335449
2501.075195	7190.088379
2501.777344	7080.819824
2502.479492	7210.193359
2503.180664	7172.151367
2503.882812	7055.699707
2504.583984	7124.541992
2505.285156	7478.575195
2505.986328	7030.553711
2506.687500	6910.438477
2507.388672	7022.096191
2508.089844	6998.247070
2508.790039	6924.445801
2509.491211	7175.312012
2510.191406	7055.123047
2510.891602	7088.369629
2511.591797	6971.698242
2512.291992	7201.308594
2512.992188	6848.939453
2513.692383	7114.317383
2514.392578	7019.006348
2515.091797	6723.600586
2515.791992	6889.036621
2516.491211	6925.871094
2517.190430	7087.817383
2517.889648	6942.376953
2518.588867	6957.784180
2519.288086	6933.860352
2519.987305	6870.586426
2520.686523	6950.377441
2521.384766	6847.730957
2522.083984	6805.881836
2522.782227	6853.490234
2523.480469	6757.937012
2524.178711	6887.892578
2524.876953	6731.444336
2525.575195	6861.436523
2526.273438	6658.372070
2526.971680	6802.722168
2527.668945	6957.867188
2528.366211	6686.635254
2529.064453	6694.867676
2529.761719	6857.237305
2530.458984	6668.317383
2531.156250	6866.590820
2531.853516	6702.715820
2532.550781	6904.644531
2533.247070	6561.352539
2533.944336	6677.211426
2534.640625	6778.752441
2535.336914	6804.954590
2536.033203	6849.112793
2536.729492	6595.294434
2537.425781	6804.610840
2538.122070	6701.542480
2538.818359	6523.009766
2539.514648	6434.233398
2540.209961	6596.946289
2540.905273	6644.712891
2541.601562	6739.219727
2542.296875	6416.757324
2542.992188	6518.448242
2543.687500	6375.645996
2544.381836	6693.154297
2545.077148	6435.226074
2545.772461	6630.523926
2546.466797	6609.987793
2547.162109	6481.480469
2547.856445	6550.898926
2548.550781	6519.540039
2549.245117	6416.160156
2549.939453	6327.151855
2550.633789	6580.274902
2551.327148	6365.185059
2552.021484	6474.280762
2552.714844	6406.844727
2553.409180	6530.396973
2554.102539	6423.297852
2554.795898	6514.445801
2555.489258	6353.224609
2556.182617	6361.445801
2556.875000	6279.498535
2557.568359	6280.495605
2558.261719	6407.771973
2558.954102	6329.401367
2559.646484	6005.584961
2560.339844	6223.120117
2561.032227	6206.056641
2561.724609	6178.154785
2562.416992	6146.632324
2563.108398	6212.624023
2563.800781	6022.144043
2564.492188	6247.114258
2565.184570	6284.242188
2565.875977	6202.110840
2566.567383	6015.122559
2567.258789	6153.463379
2567.950195	6179.751465
2568.641602	6097.550293
2569.333008	6145.540527
2570.024414	6251.429688
2570.714844	6136.635254
2571.406250	6130.371094
2572.096680	6026.379395
2572.787109	6081.635254
2573.477539	5992.084473
2574.167969	5982.171387
2574.858398	6080.906738
2575.548828	6092.737793
2576.238281	6133.555664
2576.928711	6264.972656
2577.618164	6164.492676
2578.307617	6034.983887
2578.998047	5952.561035
2579.687500	5851.983398
2580.376953	5972.579590
2581.065430	6089.587402
2581.754883	5952.708008
2582.444336	5968.163574
2583.132812	6099.740234
2583.822266	5890.212402
2584.510742	5905.664551
2585.199219	6167.986328
2585.887695	5878.488770
2586.576172	6050.101074
2587.264648	5771.388184
2587.953125	5775.935059
2588.640625	5758.684082
2589.329102	5952.187988
2590.016602	5724.164062
2590.704102	5768.689941
2591.391602	5700.528320
2592.080078	5752.336426
2592.766602	5876.895020
2593.454102	5550.471191
2594.141602	5715.052734
2594.829102	5697.765625
2595.515625	5749.613281
2596.202148	5874.269043
2596.889648	5711.392090
2597.576172	5686.811035
2598.262695	5716.841309
2598.949219	5684.969238
2599.635742	5609.377441
2600.321289	5624.836914
2601.007812	5673.093750
2601.694336	5524.580078
2602.379883	5707.691895
2603.065430	5624.752441
2603.750977	5592.829102
2604.436523	5528.076660
2605.122070	5645.657227
2605.807617	5759.627441
2606.493164	5435.846680
2607.177734	5509.682129
2607.863281	5627.333496
2608.547852	5682.972656
2609.233398	5676.570312
2609.917969	5527.772461
2610.602539	5590.725098
2611.287109	5606.217773
2611.971680	5621.715820
2612.655273	5699.326172
2613.339844	5543.105469
2614.023438	5565.908691
2614.708008	5669.132812
2615.391602	5260.587402
2616.075195	5641.674316
2616.758789	5408.525391
2617.442383	5456.927246
2618.125977	5432.183105
2618.809570	5484.262207
2619.492188	5525.379883
2620.175781	5368.882812
2620.858398	5406.334473
2621.541016	5275.395020
2622.224609	5305.520508
2622.907227	5401.572266
2623.589844	5146.039551
2624.271484	5487.533203
2624.954102	5268.570801
2625.636719	5324.369141
2626.318359	5343.534668
2627.000977	5377.368164
2627.682617	5257.234863
2628.364258	5225.064453
2629.045898	5354.244629
2629.727539	5318.411133
2630.409180	5465.988770
2631.090820	5323.759766
2631.771484	5306.251953
2632.453125	5314.429688
2633.133789	5190.462402
2633.815430	5290.407715
2634.496094	5203.116699
2635.176758	5211.282715
2635.857422	5179.047363
2636.538086	5242.316406
2637.217773	5195.378418
2637.898438	5376.264648
2638.579102	5285.227539
2639.258789	5142.698242
2639.938477	5253.806152
2640.618164	5045.037598
2641.298828	5226.041992
2641.978516	5153.299805
2642.657227	5128.360352
2643.336914	5022.464844
2644.016602	5089.497559
2644.695312	5189.676758
2645.375000	5164.727051
2646.053711	5194.995605
2646.732422	5203.179199
2647.411133	5008.803223
2648.089844	4969.074219
2648.768555	4925.648438
2649.447266	5011.172363
2650.125977	5078.296875
2650.803711	4953.778320
2651.482422	5124.134766
2652.160156	4918.469727
2652.837891	5040.935547
2653.515625	4934.772949
2654.193359	4976.126465
2654.871094	4903.124023
2655.548828	4859.617188
2656.226562	4827.168457
2656.903320	4861.148438
2657.581055	4891.447754
2658.257812	4737.144043
2658.934570	5029.623047
2659.611328	4853.131836
2660.288086	4953.633789
2660.964844	4729.045410
2661.641602	4689.143066
2662.318359	4797.057617
2662.994141	4775.635254
2663.670898	4961.231934
2664.346680	4743.861816
2665.022461	4744.608887
2665.699219	4808.232422
2666.375000	4723.907227
2667.050781	4791.247070
2667.725586	4762.398438
2668.401367	4652.118652
2669.077148	4741.687988
2669.751953	4879.413086
2670.427734	4743.180664
2671.102539	4703.190430
2671.777344	4678.003418
2672.452148	4637.990234
2673.126953	4583.144043
2673.801758	4620.921387
2674.476562	4706.891602
2675.150391	4637.202637
2675.825195	4526.710449
2676.499023	4735.068359
2677.172852	4665.351074
2677.847656	4514.010254
2678.521484	4566.656250
2679.195312	4726.916992
2679.869141	4623.755859
2680.541992	4698.711914
2681.215820	4614.073730
2681.888672	4637.074707
2682.562500	4563.539551
2683.235352	4582.825684
2683.908203	4390.398438
2684.582031	4561.977051
2685.254883	4551.547363
2685.926758	4492.804688
2686.599609	4530.677734
2687.272461	4460.761230
2687.944336	4431.718750
2688.617188	4309.705566
2689.289062	4708.321777
2689.961914	4430.088379
2690.633789	4464.266602
2691.305664	4457.526367
2691.977539	4439.619629
2692.648438	4548.254395
2693.320312	4515.465820
2693.992188	4542.236816
2694.663086	4434.961914
2695.334961	4443.107422
2696.005859	4507.128418
2696.676758	4429.601074
2697.347656	4594.243652
2698.018555	4498.071777
2698.689453	4312.416016
2699.360352	4365.282715
2700.030273	4239.202148
2700.701172	4359.195312
2701.371094	4315.124512
2702.041016	4401.595703
2702.711914	4212.018555
2703.381836	4440.291016
2704.051758	4176.021484
2704.720703	4322.244629
2705.390625	4595.438477
2706.060547	4319.867676
2706.729492	4335.482422
2707.399414	4392.185547
2708.068359	4105.245605
2708.737305	4214.234375
2709.407227	4315.784180
2710.076172	4226.768555
2710.744141	4175.102539
2711.413086	4138.373535
2712.082031	4296.058594
2712.750000	4214.462402
2713.418945	4222.604004
2714.086914	4313.042969
2714.755859	4343.649902
2715.423828	4228.332520
2716.091797	4232.737793
2716.759766	4270.832031
2717.426758	4215.346680
2718.094727	4092.447998
2718.762695	4194.199707
2719.429688	4146.166992
2720.097656	4075.642822
2720.764648	4147.466797
2721.431641	4196.829590
2722.098633	4062.568359
2722.765625	4111.933594
2723.432617	4030.101318
2724.099609	4214.458984
2724.765625	4061.365234
2725.432617	3938.228516
2726.098633	3927.591797
2726.765625	4097.041016
2727.431641	4202.751465
2728.097656	4083.312500
2728.763672	4102.720215
2729.429688	4043.295410
2730.095703	4036.418945
2730.761719	4018.274170
2731.426758	4248.018555
2732.092773	4012.019531
2732.757812	3941.261719
2733.422852	4118.493164
2734.087891	3961.287842
2734.752930	3916.800781
2735.417969	3894.856934
2736.083008	4023.310059
2736.748047	3929.922607
2737.413086	3930.537598
2738.077148	3855.915527
2738.741211	3897.906006
2739.406250	3853.359619
2740.070312	3835.144287
2740.734375	3869.622559
2741.398438	3847.639160
2742.062500	3964.968750
2742.726562	3822.481445
2743.389648	3988.808838
2744.053711	3793.540039
2744.716797	3854.417725
2745.380859	3990.681152
2746.043945	3738.786621
2746.707031	3814.761963
2747.370117	3951.082764
2748.033203	3782.018799
2748.696289	3888.206543
2749.358398	3779.429932
2750.021484	3753.613525
2750.684570	3822.115723
2751.346680	3845.355225
2752.008789	3902.570068
2752.670898	3771.061035
2753.333008	3782.976807
2753.995117	3915.728760
2754.657227	3818.148926
2755.319336	3743.201904
2755.981445	3690.897949
2756.642578	3717.923340
2757.304688	3760.072998
2757.965820	3613.257812
2758.626953	3783.929199
2759.288086	3765.616699
2759.949219	3720.829102
2760.610352	3691.155029
2761.271484	3676.601807
2761.932617	3711.224121
2762.592773	3764.775391
2763.253906	3791.853516
2763.914062	3614.556641
2764.574219	3618.906738
2765.235352	3687.620850
2765.895508	3585.957275
2766.555664	3707.708984
2767.214844	3541.623291
2767.875000	3670.982910
2768.535156	3732.180176
2769.194336	3566.020264
2769.854492	3699.233887
2770.513672	3510.271973
2771.172852	3503.237061
2771.832031	3731.302490
2772.491211	3549.841797
2773.150391	3614.879395
2773.809570	3497.837402
2774.468750	3627.390869
2775.126953	3525.493652
2775.786133	3586.772217
2776.444336	3435.487305
2777.103516	3485.380615
2777.761719	3618.830078
2778.419922	3532.042969
2779.078125	3357.863525
2779.736328	3403.976318
2780.393555	3465.302246
2781.051758	3515.246094
2781.708984	3557.604004
2782.367188	3459.321045
2783.024414	3433.246338
2783.681641	3468.005371
2784.339844	3377.268555
2784.997070	3533.751953
2785.653320	3446.801514
2786.310547	3386.458740
2786.967773	3364.153076
2787.625000	3444.607666
2788.281250	3452.758301
2788.937500	3411.415283
2789.594727	3400.523193
2790.250977	3210.624756
2790.907227	3298.735840
2791.563477	3424.971924
2792.219727	3421.695557
2792.875000	3357.442627
2793.531250	3346.531250
2794.187500	3335.616211
2794.842773	3355.199707
2795.498047	3302.335938
2796.154297	3302.850342
2796.809570	3230.889160
2797.464844	3330.585205
2798.120117	3327.288330
2798.775391	3316.357910
2799.429688	3335.958740
2800.084961	3344.113281
2800.739258	3268.272705
2801.394531	3234.413574
2802.048828	3338.037354
2802.703125	3220.141602
2803.357422	3392.563477
2804.011719	3202.039062
2804.666016	3282.792236
2805.320312	3310.059082
2805.974609	3130.901123
2806.627930	3322.559814
2807.282227	3254.244629
2807.935547	3258.575928
2808.588867	3224.656006
2809.242188	3110.383545
2809.895508	3309.840820
2810.548828	3161.102783
2811.202148	3142.456787
2811.855469	3177.399414
2812.507812	3082.174072
2813.161133	3228.170410
2813.813477	3102.283203
2814.466797	3187.038574
2815.119141	3248.833008
2815.771484	3134.385498
2816.423828	3146.370117
2817.076172	3231.184570
2817.728516	3120.513916
2818.379883	3074.989502
2819.032227	3109.980469
2819.683594	3171.829590
2820.335938	2946.002197
2820.987305	3172.815918
2821.638672	3161.797852
2822.290039	3050.995361
2822.941406	2993.894775
2823.592773	3074.977539
2824.244141	3098.492676
2824.894531	3152.736084
2825.545898	3041.845459
2826.196289	3030.794189
2826.847656	3008.213867
2827.498047	3027.893799
2828.148438	2951.502441
2828.798828	2994.241699
2829.449219	3021.616943
2830.099609	2975.947754
2830.750000	2972.564697
2831.399414	3169.177002
2832.049805	3042.728760
2832.699219	3058.590576
2833.348633	2970.564453
2833.999023	2997.965088
2834.648438	2963.789062
2835.297852	2983.497803
2835.947266	3072.517578
2836.595703	3015.231689
2837.245117	2934.819092
2837.894531	2896.754150
2838.542969	2993.520508
2839.191406	2970.865723
2839.840820	2944.349854
2840.489258	2875.426758
2841.137695	3118.741699
2841.786133	2968.855469
2842.434570	2911.472412
2843.083008	2834.787109
2843.730469	2850.656982
2844.378906	3009.279541
2845.026367	2809.096680
2845.673828	2851.984375
2846.322266	3041.559570
2846.969727	2953.241211
2847.617188	2903.505859
2848.264648	2903.956299
2848.912109	3020.274170
2849.558594	2773.520996
2850.206055	2924.625488
2850.853516	2766.653320
2851.500000	2925.532715
2852.146484	2871.873291
2852.792969	2872.318604
2853.440430	2926.894287
2854.086914	2834.539307
2854.732422	2920.066895
2855.378906	2769.658447
2856.025391	2913.234863
2856.671875	2809.211670
2857.317383	2825.127441
2857.962891	2697.834473
2858.609375	2899.556885
2859.254883	2803.210449
2859.900391	2830.752197
2860.545898	2885.413574
2861.191406	2758.030518
2861.836914	2773.955078
2862.481445	2739.511475
2863.126953	2825.195557
2863.771484	2740.360596
2864.416992	2891.974121
2865.061523	2880.790527
2865.706055	2621.421387
2866.350586	2897.197021
2866.995117	2645.508057
2867.639648	2758.427734
2868.284180	2824.819092
2868.927734	2836.899170
2869.572266	2740.302490
2870.215820	2795.075684
2870.860352	2737.268799
2871.503906	2590.129150
2872.147461	2765.303467
2872.791016	2738.540527
2873.434570	2801.125488
2874.078125	2723.846191
2874.721680	2875.832031
2875.364258	2639.178711
2876.007812	2647.362305
2876.650391	2694.428955
2877.293945	2725.955322
2877.936523	2703.041504
2878.579102	2633.442383
2879.221680	2785.578369
2879.864258	2817.138184
2880.506836	2689.148682
2881.148438	2658.426514
2881.791016	2806.767578
2882.432617	2612.527588
2883.075195	2671.343262
2883.716797	2648.388428
2884.358398	2613.740479
2885.000977	2649.207764
2885.642578	2661.307129
2886.283203	2607.159424
2886.924805	2595.869629
2887.566406	2623.559326
2888.207031	2522.593506
2888.848633	2487.887939
2889.489258	2554.574707
2890.130859	2613.480469
2890.771484	2496.844971
2891.412109	2462.113770
2892.052734	2446.884277
2892.693359	2622.903564
2893.333984	2592.079102
2893.973633	2549.532227
2894.614258	2432.778076
2895.253906	2421.437500
2895.894531	2624.931396
2896.534180	2531.575195
2897.173828	2594.484131
2897.813477	2485.462158
2898.453125	2478.029297
2899.092773	2607.414795
2899.732422	2506.163574
2900.372070	2580.847900
2901.010742	2506.937988
2901.650391	2550.352783
2902.289062	2452.942139
2902.927734	2457.233887
2903.566406	2571.102051
2904.205078	2575.413086
2904.843750	2513.177246
2905.482422	2415.685059
2906.121094	2506.122070
2906.759766	2545.673340
2907.397461	2428.555664
2908.036133	2358.413330
2908.673828	2319.595215
2909.311523	2511.976562
2909.949219	2473.169922
2910.586914	2406.910889
2911.224609	2470.012939
2911.862305	2509.606934
2912.500000	2455.088135
2913.137695	2522.149170
2913.774414	2412.692139
2914.412109	2420.912109
2915.048828	2319.254150
2915.685547	2429.509033
2916.322266	2300.342529
2916.958984	2430.259033
2917.595703	2513.094971
2918.232422	2474.209473
2918.869141	2360.681396
2919.505859	2278.546631
2920.141602	2263.181641
2920.778320	2287.109131
2921.414062	2421.093750
2922.049805	2362.502930
2922.685547	2315.688721
2923.321289	2402.553467
2923.957031	2473.713867
2924.592773	2395.427734
2925.228516	2403.665283
2925.864258	2348.951660
2926.499023	2341.443359
2927.134766	2227.666016
2927.769531	2306.737793
2928.404297	2283.471191
2929.039062	2295.636230
2929.673828	2359.001709
2930.308594	2260.894531
2930.943359	2304.576904
2931.578125	2308.872070
2932.211914	2238.296143
2932.846680	2337.172852
2933.480469	2262.637451
2934.115234	2326.065674
2934.749023	2188.416016
2935.382812	2141.428711
2936.016602	2189.090332
2936.650391	2220.987061
2937.284180	2296.294189
2937.917969	2292.701904
2938.550781	2304.895264
2939.184570	2273.671387
2939.817383	2163.479004
2940.451172	2132.223633
2941.083984	2069.365479
2941.716797	2263.223389
2942.349609	2208.266357
2942.982422	2169.096436
2943.615234	2149.672607
2944.248047	2142.099121
2944.879883	2071.278076
2945.512695	2142.758789
2946.144531	2226.123535
2946.776367	2095.962891
2947.409180	2135.838135
2948.041016	2104.520020
2948.672852	1986.149658
2949.304688	2037.897461
2949.936523	2065.915039
2950.567383	2181.023682
2951.199219	2015.085083
2951.831055	2106.464111
2952.461914	2106.788330
2953.092773	2043.740601
2953.724609	2048.016357
2954.355469	1929.472900
2954.986328	1977.320435
2955.617188	2076.704102
2956.248047	1993.784058
2956.877930	2097.165039
2957.508789	2041.977539
2958.139648	1939.185669
2958.769531	1955.348755
2959.399414	2003.251587
2960.030273	1944.047974
2960.660156	2007.835815
2961.290039	2008.144531
2961.919922	2036.238281
2962.549805	1984.942871
2963.178711	2116.274414
2963.808594	1918.044434
2964.438477	1993.801880
2965.067383	1978.219116
2965.696289	1871.253906
2966.326172	2141.742920
2966.955078	2018.873047
2967.583984	1796.596191
2968.212891	1900.232300
2968.841797	1984.020142
2969.470703	1825.260864
2970.098633	1809.632568
2970.727539	2024.713135
2971.355469	1865.886841
2971.984375	1886.068726
2972.612305	1890.338135
2973.240234	1902.569336
2973.868164	1942.670532
2974.496094	1895.190918
2975.124023	1927.338867
2975.751953	1736.464600
2976.378906	1808.431152
2977.006836	1840.580444
2977.633789	1896.646851
2978.261719	1817.234863
2978.888672	1861.357422
2979.515625	1849.684082
2980.142578	1849.968018
2980.769531	1890.128296
2981.396484	1850.536133
2982.023438	1858.797974
2982.650391	1918.925049
2983.276367	1851.388550
2983.903320	1799.793945
2984.529297	1788.096436
2985.156250	1788.370850
2985.782227	1744.727661
2986.408203	1768.954224
2987.034180	1877.056519
2987.660156	1797.457642
2988.286133	1757.783813
2988.911133	1790.018066
2989.537109	1778.304199
2990.162109	1802.557861
2990.788086	1882.782715
2991.413086	1747.138550
2992.038086	1739.409302
2992.663086	1815.661987
2993.288086	1775.941772
2993.913086	1748.210815
2994.538086	1684.461304
2995.163086	1808.772705
2995.788086	1797.043091
2996.412109	1665.221802
2997.037109	1745.548096
2997.661133	1701.769897
2998.285156	1742.078613
2998.909180	1718.313354
2999.533203	1694.540771
3000.157227	1638.707886
3000.781250	1667.009766
3001.405273	1823.571411
3002.028320	1675.537720
3002.652344	1611.649292
3003.275391	1740.206421
3003.899414	1708.390747
3004.522461	1648.488647
3005.145508	1704.902832
3005.768555	1648.994019
3006.391602	1641.221069
3007.014648	1605.352173
3007.637695	1665.807983
3008.260742	1726.282349
3008.882812	1618.135742
3009.505859	1742.874756
3010.127930	1678.878418
3010.750000	1622.896606
3011.372070	1651.268921
3011.995117	1603.302246
3012.617188	1704.020752
3013.238281	1692.223022
3013.860352	1652.280762
3014.482422	1652.533813
3015.104492	1664.850952
3015.725586	1576.621948
3016.346680	1588.931152
3016.968750	1625.383423
3017.589844	1657.822998
3018.210938	1581.612183
3018.832031	1565.753906
3019.453125	1553.916504
3020.074219	1570.259644
3020.695312	1743.657593
3021.315430	1474.079346
3021.936523	1546.811768
3022.556641	1430.214111
3023.176758	1563.402710
3023.797852	1652.302124
3024.417969	1608.218018
3025.038086	1503.651978
3025.658203	1568.391724
3026.278320	1520.241943
3026.897461	1597.103149
3027.517578	1444.066650
3028.137695	1537.077026
3028.756836	1545.381958
3029.375977	1549.653931
3029.996094	1578.144165
3030.615234	1590.495850
3031.234375	1586.701660
3031.853516	1538.488037
3032.472656	1470.066284
3033.091797	1563.194092
3033.709961	1559.393188
3034.329102	1531.348145
3034.947266	1511.376709
3035.566406	1531.816406
3036.184570	1629.067017
3036.802734	1479.726196
3037.420898	1439.516479
3038.039062	1488.266968
3038.657227	1520.853027
3039.275391	1476.585693
3039.893555	1497.041626
3040.510742	1464.896973
3041.128906	1457.026245
3041.746094	1432.961304
3042.364258	1469.617065
3042.981445	1457.694214
3043.598633	1364.772217
3044.215820	1470.290771
3044.833008	1466.464355
3045.450195	1389.707520
3046.067383	1410.181030
3046.683594	1394.184937
3047.300781	1422.772217
3047.916992	1483.801025
3048.534180	1459.699341
3049.150391	1407.202881
3049.766602	1577.767944
3050.382812	1427.915527
3050.999023	1456.533936
3051.615234	1395.889038
3052.231445	1436.686523
3052.846680	1432.846802
3053.462891	1489.901001
3054.079102	1396.741699
3054.694336	1344.162964
3055.309570	1441.844971
3055.924805	1389.257080
3056.541016	1340.715698
3057.156250	1405.934692
3057.770508	1369.573120
3058.385742	1361.652832
3059.000977	1361.860596
3059.616211	1406.793091
3060.230469	1411.074219
3060.845703	1390.953857
3061.459961	1383.030640
3062.074219	1248.985840
3062.688477	1318.348999
3063.302734	1347.037231
3063.916992	1367.593872
3064.531250	1416.652466
3065.145508	1302.867676
3065.759766	1392.652222
3066.373047	1307.337769
3066.987305	1295.317139
3067.600586	1434.028809
3068.213867	1369.054443
3068.828125	1340.736816
3069.441406	1320.562256
3070.054688	1263.693604
3070.667969	1394.351929
3071.280273	1370.098389
3071.893555	1292.819580
3072.506836	1333.805908
3073.119141	1334.009155
3073.732422	1289.330688
3074.344727	1207.911621
3074.957031	1297.886597
3075.569336	1281.756226
3076.181641	1326.860718
3076.793945	1290.313477
3077.406250	1278.258423
3078.018555	1319.298340
3078.630859	1270.477661
3079.242188	1274.756958
3079.854492	1287.210327
3080.465820	1291.493408
3081.077148	1267.164307
3081.689453	1340.945923
3082.300781	1275.728149
3082.912109	1308.638428
3083.523438	1239.305664
3084.133789	1399.033325
3084.745117	1239.683228
3085.356445	1264.423950
3085.966797	1260.523804
3086.578125	1227.969849
3087.188477	1273.189331
3087.798828	1289.760986
3088.409180	1289.957397
3089.019531	1249.196533
3089.629883	1204.326782
3090.240234	1224.994995
3090.850586	1212.888672
3091.460938	1147.501709
3092.070312	1246.048584
3092.680664	1188.845703
3093.290039	1254.628052
3093.899414	1185.106812
3094.508789	1136.071167
3095.119141	1275.710693
3095.728516	1271.802246
3096.336914	1132.486572
3096.946289	1206.527954
3097.555664	1219.024780
3098.165039	1165.844116
3098.773438	1198.867188
3099.382812	1075.859497
3099.991211	1108.878784
3100.599609	1174.768799
3101.208008	1179.055664
3101.816406	1249.085205
3102.424805	1158.867065
3103.033203	1233.024780
3103.641602	1159.219482
3104.250000	1138.839111
3104.857422	1159.572021
3105.465820	1217.324463
3106.073242	1209.283081
3106.680664	1094.279663
3107.288086	1168.506226
3107.896484	1209.834717
3108.503906	1115.357300
3109.110352	1148.457520
3109.717773	1198.035522
3110.325195	1152.924194
3110.932617	1190.163330
3111.539062	1095.610840
3112.146484	1194.644531
3112.752930	1137.144775
3113.359375	1137.317505
3113.965820	1129.247681
3114.572266	1063.467773
3115.178711	1100.732666
3115.785156	1080.283813
3116.391602	1092.819336
3116.998047	1088.860962
3117.603516	1006.524292
3118.209961	1159.329102
3118.815430	1217.274048
3119.421875	1027.617920
3120.027344	1052.539551
3120.632812	1048.571167
3121.238281	1073.503540
3121.843750	1094.313965
3122.449219	1119.260864
3123.053711	1020.292969
3123.659180	1074.155640
3124.264648	1028.866821
3124.869141	942.237915
3125.473633	1012.646179
3126.079102	987.996582
3126.683594	1054.298584
3127.288086	1021.377625
3127.892578	955.360474
3128.497070	1162.324829
3129.101562	1050.801758
3129.705078	1009.584839
3130.309570	1059.397217
3130.914062	985.057800
3131.517578	1047.300171
3132.121094	968.796143
3132.725586	919.253723
3133.329102	1039.494141
3133.932617	994.089355
3134.536133	1060.522827
3135.139648	973.674438
3135.742188	994.541748
3136.345703	953.247070
3136.949219	1023.859741
3137.551758	949.390442
3138.154297	908.070007
3138.757812	920.648926
3139.360352	958.117798
3139.962891	983.153015
3140.565430	999.897888
3141.167969	971.002380
3141.770508	971.149597
3142.373047	904.883362
3142.974609	1017.110229
3143.577148	921.766113
3144.178711	984.196777
3144.781250	926.198914
3145.382812	938.801208
3145.984375	889.088135
3146.585938	922.464844
3147.187500	926.760498
3147.789062	906.118408
3148.390625	931.198486
3148.992188	960.443970
3149.592773	923.163879
3150.194336	885.872559
3150.794922	931.762939
3151.396484	877.820374
3151.997070	932.045288
3152.597656	1011.255859
3153.198242	890.705872
3153.798828	828.398682
3154.399414	911.792908
3155.000000	911.930969
3155.599609	866.257385
3156.200195	891.380554
3156.799805	820.694214
3157.400391	845.817993
3158.000000	858.447754
3158.599609	887.752686
3159.200195	867.044678
3159.799805	875.514160
3160.399414	867.307190
3160.998047	909.142212
3161.597656	950.989929
3162.197266	880.216003
3162.795898	880.349243
3163.395508	855.445068
3163.994141	918.177490
3164.593750	859.878174
3165.192383	818.260315
3165.791016	935.296143
3166.389648	776.747314
3166.988281	893.812256
3167.586914	881.415527
3168.184570	848.125183
3168.783203	856.610657
3169.381836	794.051941
3169.979492	781.632507
3170.577148	819.375122
3171.175781	794.412354
3171.773438	903.257996
3172.371094	798.835022
3172.968750	828.236938
3173.566406	811.627563
3174.164062	828.487427
3174.760742	790.948486
3175.358398	791.068115
3175.956055	761.884460
3176.552734	833.175415
3177.149414	824.926514
3177.747070	825.051208
3178.343750	800.043701
3178.940430	846.247375
3179.537109	787.715637
3180.133789	892.599915
3180.730469	829.866211
3181.326172	817.415955
3181.922852	758.844360
3182.518555	775.731628
3183.115234	830.367920
3183.710938	801.132568
3184.306641	818.033752
3184.903320	826.548706
3185.499023	776.317871
3186.094727	851.980164
3186.689453	831.120972
3187.285156	789.264343
3187.880859	789.383606
3188.475586	831.497681
3189.071289	823.223022
3189.666016	848.551880
3190.261719	773.055054
3190.856445	882.424316
3191.451172	802.707153
3192.045898	739.778992
3192.640625	731.482849
3193.235352	798.866272
3193.830078	878.885559
3194.423828	773.872559
3195.018555	803.434631
3195.612305	753.070740
3196.207031	824.715881
3196.800781	816.423645
3197.394531	795.501831
3197.989258	782.992981
3198.583008	774.690613
3199.176758	816.916626
3199.769531	699.116638
3200.363281	850.860657
